File: Lambda max, Extincion max y Area/oro/9/1.56e-4.txt
"1.56e-4 - Dataset 213457"
"Wavelength nm."	"Abs."
200,00	2,232
202,50	2,232
205,00	2,239
207,50	3,179
210,00	3,939
212,50	2,074
215,00	0,793
217,50	2,871
220,00	4,707
222,50	2,579
225,00	1,491
227,50	3,788
230,00	3,031
232,50	2,159
235,00	1,333
237,50	0,930
240,00	1,249
242,50	1,757
245,00	0,541
247,50	-0,335
250,00	1,877
252,50	1,661
255,00	2,023
257,50	3,497
260,00	2,186
262,50	2,570
265,00	2,353
267,50	0,677
270,00	1,859
272,50	3,665
275,00	2,120
277,50	0,277
280,00	-0,055
282,50	0,175
285,00	0,172
287,50	0,175
290,00	0,347
292,50	1,675
295,00	1,144
297,50	-0,258
300,00	0,131
302,50	0,173
305,00	0,161
307,50	0,150
310,00	0,156
312,50	0,150
315,00	0,150
317,50	0,150
320,00	0,146
322,50	0,146
325,00	0,144
327,50	0,152
330,00	0,147
332,50	0,141
335,00	0,139
337,50	0,135
340,00	0,138
342,50	0,138
345,00	0,133
347,50	0,137
350,00	0,134
352,50	0,129
355,00	0,132
357,50	0,138
360,00	0,138
362,50	0,135
365,00	0,130
367,50	0,130
370,00	0,130
372,50	0,127
375,00	0,127
377,50	0,128
380,00	0,129
382,50	0,128
385,00	0,124
387,50	0,121
390,00	0,121
392,50	0,119
395,00	0,119
397,50	0,122
400,00	0,122
402,50	0,119
405,00	0,117
407,50	0,119
410,00	0,119
412,50	0,116
415,00	0,116
417,50	0,118
420,00	0,117
422,50	0,116
425,00	0,114
427,50	0,115
430,00	0,116
432,50	0,113
435,00	0,114
437,50	0,116
440,00	0,115
442,50	0,115
445,00	0,114
447,50	0,115
450,00	0,117
452,50	0,118
455,00	0,119
457,50	0,119
460,00	0,119
462,50	0,122
465,00	0,122
467,50	0,122
470,00	0,125
472,50	0,127
475,00	0,127
477,50	0,130
480,00	0,134
482,50	0,136
485,00	0,140
487,50	0,144
490,00	0,148
492,50	0,152
495,00	0,159
497,50	0,165
500,00	0,169
502,50	0,174
505,00	0,181
507,50	0,188
510,00	0,192
512,50	0,196
515,00	0,201
517,50	0,203
520,00	0,203
522,50	0,201
525,00	0,199
527,50	0,195
530,00	0,189
532,50	0,184
535,00	0,177
537,50	0,168
540,00	0,160
542,50	0,154
545,00	0,144
547,50	0,137
550,00	0,128
552,50	0,118
555,00	0,110
557,50	0,102
560,00	0,095
562,50	0,090
565,00	0,084
567,50	0,081
570,00	0,077
572,50	0,070
575,00	0,065
577,50	0,062
580,00	0,059
582,50	0,054
585,00	0,050
587,50	0,049
590,00	0,048
592,50	0,045
595,00	0,042
597,50	0,039
600,00	0,038
602,50	0,036
605,00	0,033
607,50	0,032
610,00	0,032
612,50	0,031
615,00	0,030
617,50	0,026
620,00	0,027
622,50	0,029
625,00	0,024
627,50	0,023
630,00	0,022
632,50	0,021
635,00	0,020
637,50	0,019
640,00	0,018
642,50	0,020
645,00	0,020
647,50	0,018
650,00	0,017
652,50	0,017
655,00	0,016
657,50	0,015
660,00	0,016
662,50	0,016
665,00	0,014
667,50	0,013
670,00	0,013
672,50	0,014
675,00	0,014
677,50	0,013
680,00	0,011
682,50	0,009
685,00	0,011
687,50	0,014
690,00	0,012
692,50	0,012
695,00	0,011
697,50	0,008
700,00	0,008
702,50	0,010
705,00	0,011
707,50	0,011
710,00	0,012
712,50	0,012
715,00	0,010
717,50	0,012
720,00	0,011
722,50	0,012
725,00	0,012
727,50	0,008
730,00	0,008
732,50	0,009
735,00	0,007
737,50	0,008
740,00	0,007
742,50	0,009
745,00	0,010
747,50	0,006
750,00	0,007
752,50	0,013
755,00	0,009
757,50	0,008
760,00	0,011
762,50	0,010
765,00	0,008
767,50	0,007
770,00	0,009
772,50	0,007
775,00	0,009
777,50	0,009
780,00	0,007
782,50	0,008
785,00	0,006
787,50	0,006
790,00	0,010
792,50	0,011
795,00	0,009
797,50	0,008
800,00	0,008