File: Lambda max, Extincion max y Area/oro/9/1.62e-4.txt
"1.62e-4 - Dataset 205825"
"Wavelength nm."	"Abs."
200,00	2,712
202,50	2,712
205,00	2,766
207,50	3,718
210,00	2,841
212,50	2,900
215,00	3,041
217,50	3,095
220,00	3,683
222,50	2,367
225,00	2,636
227,50	2,565
230,00	1,791
232,50	2,832
235,00	1,433
237,50	3,570
240,00	3,528
242,50	0,205
245,00	2,086
247,50	3,061
250,00	2,487
252,50	2,698
255,00	2,854
257,50	1,493
260,00	1,038
262,50	4,170
265,00	3,609
267,50	3,800
270,00	2,035
272,50	1,393
275,00	2,639
277,50	0,669
280,00	0,280
282,50	0,156
285,00	0,172
287,50	0,185
290,00	0,186
292,50	0,186
295,00	0,184
297,50	0,183
300,00	0,183
302,50	0,179
305,00	0,177
307,50	0,176
310,00	0,173
312,50	0,171
315,00	0,170
317,50	0,168
320,00	0,166
322,50	0,165
325,00	0,164
327,50	0,162
330,00	0,160
332,50	0,160
335,00	0,160
337,50	0,158
340,00	0,157
342,50	0,156
345,00	0,156
347,50	0,155
350,00	0,155
352,50	0,154
355,00	0,154
357,50	0,153
360,00	0,152
362,50	0,152
365,00	0,151
367,50	0,151
370,00	0,151
372,50	0,150
375,00	0,149
377,50	0,148
380,00	0,148
382,50	0,147
385,00	0,146
387,50	0,145
390,00	0,144
392,50	0,143
395,00	0,142
397,50	0,141
400,00	0,141
402,50	0,140
405,00	0,139
407,50	0,139
410,00	0,138
412,50	0,138
415,00	0,137
417,50	0,137
420,00	0,137
422,50	0,136
425,00	0,136
427,50	0,136
430,00	0,135
432,50	0,135
435,00	0,135
437,50	0,135
440,00	0,135
442,50	0,135
445,00	0,135
447,50	0,136
450,00	0,136
452,50	0,137
455,00	0,137
457,50	0,138
460,00	0,139
462,50	0,139
465,00	0,141
467,50	0,142
470,00	0,144
472,50	0,145
475,00	0,147
477,50	0,150
480,00	0,152
482,50	0,155
485,00	0,159
487,50	0,162
490,00	0,166
492,50	0,171
495,00	0,176
497,50	0,181
500,00	0,186
502,50	0,191
505,00	0,195
507,50	0,200
510,00	0,204
512,50	0,207
515,00	0,210
517,50	0,211
520,00	0,212
522,50	0,211
525,00	0,209
527,50	0,205
530,00	0,201
532,50	0,195
535,00	0,189
537,50	0,182
540,00	0,175
542,50	0,167
545,00	0,158
547,50	0,150
550,00	0,142
552,50	0,134
555,00	0,127
557,50	0,119
560,00	0,112
562,50	0,106
565,00	0,100
567,50	0,094
570,00	0,089
572,50	0,084
575,00	0,080
577,50	0,076
580,00	0,073
582,50	0,069
585,00	0,066
587,50	0,063
590,00	0,060
592,50	0,058
595,00	0,056
597,50	0,054
600,00	0,052
602,50	0,050
605,00	0,048
607,50	0,047
610,00	0,045
612,50	0,044
615,00	0,043
617,50	0,041
620,00	0,040
622,50	0,039
625,00	0,038
627,50	0,037
630,00	0,036
632,50	0,035
635,00	0,035
637,50	0,034
640,00	0,033
642,50	0,033
645,00	0,032
647,50	0,031
650,00	0,031
652,50	0,031
655,00	0,030
657,50	0,029
660,00	0,029
662,50	0,028
665,00	0,028
667,50	0,028
670,00	0,028
672,50	0,027
675,00	0,027
677,50	0,026
680,00	0,026
682,50	0,026
685,00	0,025
687,50	0,025
690,00	0,025
692,50	0,025
695,00	0,024
697,50	0,024
700,00	0,024
702,50	0,024
705,00	0,024
707,50	0,023
710,00	0,023
712,50	0,023
715,00	0,023
717,50	0,022
720,00	0,022
722,50	0,022
725,00	0,022
727,50	0,022
730,00	0,022
732,50	0,021
735,00	0,021
737,50	0,021
740,00	0,021
742,50	0,021
745,00	0,021
747,50	0,021
750,00	0,020
752,50	0,020
755,00	0,020
757,50	0,020
760,00	0,020
762,50	0,020
765,00	0,020
767,50	0,019
770,00	0,019
772,50	0,019
775,00	0,018
777,50	0,018
780,00	0,018
782,50	0,018
785,00	0,018
787,50	0,018
790,00	0,018
792,50	0,018
795,00	0,018
797,50	0,018
800,00	0,018