File: Lambda max, Extincion max y Area/oro/9/1.6e-4.txt
"1.6e-4 - Dataset 224425"
"Wavelength nm."	"Abs."
200,00	1,825
202,50	1,825
205,00	2,515
207,50	2,659
210,00	3,877
212,50	1,478
215,00	1,873
217,50	2,377
220,00	0,516
222,50	0,423
225,00	0,927
227,50	1,081
230,00	1,245
232,50	0,990
235,00	0,240
237,50	0,741
240,00	0,831
242,50	1,089
245,00	0,659
247,50	1,347
250,00	2,411
252,50	1,572
255,00	0,744
257,50	0,525
260,00	0,890
262,50	0,775
265,00	1,289
267,50	1,700
270,00	-0,102
272,50	0,147
275,00	0,305
277,50	-0,003
280,00	0,043
282,50	0,238
285,00	0,173
287,50	0,197
290,00	0,993
292,50	1,857
295,00	0,783
297,50	0,172
300,00	0,161
302,50	0,187
305,00	0,198
307,50	0,168
310,00	0,158
312,50	0,167
315,00	0,160
317,50	0,159
320,00	0,164
322,50	0,156
325,00	0,162
327,50	0,161
330,00	0,156
332,50	0,154
335,00	0,151
337,50	0,154
340,00	0,151
342,50	0,148
345,00	0,148
347,50	0,147
350,00	0,147
352,50	0,150
355,00	0,153
357,50	0,147
360,00	0,144
362,50	0,143
365,00	0,143
367,50	0,144
370,00	0,139
372,50	0,137
375,00	0,138
377,50	0,137
380,00	0,135
382,50	0,135
385,00	0,136
387,50	0,136
390,00	0,135
392,50	0,134
395,00	0,131
397,50	0,132
400,00	0,129
402,50	0,127
405,00	0,130
407,50	0,129
410,00	0,128
412,50	0,129
415,00	0,129
417,50	0,126
420,00	0,127
422,50	0,127
425,00	0,124
427,50	0,124
430,00	0,125
432,50	0,126
435,00	0,126
437,50	0,125
440,00	0,127
442,50	0,126
445,00	0,125
447,50	0,125
450,00	0,128
452,50	0,130
455,00	0,128
457,50	0,126
460,00	0,130
462,50	0,131
465,00	0,133
467,50	0,136
470,00	0,134
472,50	0,137
475,00	0,140
477,50	0,142
480,00	0,145
482,50	0,147
485,00	0,150
487,50	0,155
490,00	0,160
492,50	0,164
495,00	0,170
497,50	0,174
500,00	0,179
502,50	0,184
505,00	0,187
507,50	0,192
510,00	0,194
512,50	0,197
515,00	0,201
517,50	0,202
520,00	0,203
522,50	0,201
525,00	0,198
527,50	0,193
530,00	0,190
532,50	0,183
535,00	0,175
537,50	0,166
540,00	0,159
542,50	0,151
545,00	0,142
547,50	0,136
550,00	0,126
552,50	0,117
555,00	0,111
557,50	0,105
560,00	0,097
562,50	0,091
565,00	0,086
567,50	0,080
570,00	0,073
572,50	0,069
575,00	0,066
577,50	0,061
580,00	0,058
582,50	0,056
585,00	0,053
587,50	0,049
590,00	0,046
592,50	0,045
595,00	0,042
597,50	0,040
600,00	0,037
602,50	0,036
605,00	0,032
607,50	0,030
610,00	0,031
612,50	0,029
615,00	0,028
617,50	0,026
620,00	0,023
622,50	0,024
625,00	0,023
627,50	0,022
630,00	0,022
632,50	0,021
635,00	0,021
637,50	0,020
640,00	0,019
642,50	0,016
645,00	0,018
647,50	0,017
650,00	0,016
652,50	0,017
655,00	0,018
657,50	0,018
660,00	0,016
662,50	0,016
665,00	0,013
667,50	0,012
670,00	0,014
672,50	0,013
675,00	0,015
677,50	0,013
680,00	0,012
682,50	0,012
685,00	0,012
687,50	0,012
690,00	0,010
692,50	0,011
695,00	0,011
697,50	0,009
700,00	0,010
702,50	0,010
705,00	0,011
707,50	0,012
710,00	0,011
712,50	0,009
715,00	0,011
717,50	0,010
720,00	0,009
722,50	0,011
725,00	0,009
727,50	0,011
730,00	0,011
732,50	0,007
735,00	0,009
737,50	0,008
740,00	0,009
742,50	0,012
745,00	0,009
747,50	0,007
750,00	0,008
752,50	0,009
755,00	0,010
757,50	0,012
760,00	0,009
762,50	0,003
765,00	0,005
767,50	0,008
770,00	0,008
772,50	0,009
775,00	0,010
777,50	0,007
780,00	0,007
782,50	0,012
785,00	0,011
787,50	0,010
790,00	0,009
792,50	0,005
795,00	0,008
797,50	0,009
800,00	0,009