File: Espectro Uv-Vis/oro/8/1.73e-4.txt
"1.73e-4 - Dataset 223409"
"Wavelength nm."	"Abs."
200,00	0,420
202,50	0,420
205,00	0,683
207,50	1,872
210,00	1,813
212,50	0,622
215,00	0,020
217,50	0,833
220,00	0,440
222,50	0,715
225,00	1,055
227,50	0,118
230,00	2,821
232,50	1,968
235,00	1,737
237,50	2,280
240,00	1,096
242,50	2,169
245,00	1,923
247,50	1,426
250,00	2,268
252,50	2,191
255,00	2,147
257,50	1,111
260,00	2,032
262,50	2,492
265,00	1,895
267,50	2,609
270,00	1,838
272,50	1,544
275,00	1,306
277,50	-0,314
280,00	-0,020
282,50	0,218
285,00	0,264
287,50	0,251
290,00	0,159
292,50	0,047
295,00	0,135
297,50	0,208
300,00	0,205
302,50	0,198
305,00	0,186
307,50	0,177
310,00	0,178
312,50	0,169
315,00	0,176
317,50	0,178
320,00	0,171
322,50	0,174
325,00	0,168
327,50	0,161
330,00	0,157
332,50	0,157
335,00	0,155
337,50	0,153
340,00	0,155
342,50	0,156
345,00	0,153
347,50	0,151
350,00	0,154
352,50	0,155
355,00	0,153
357,50	0,148
360,00	0,149
362,50	0,150
365,00	0,148
367,50	0,148
370,00	0,148
372,50	0,147
375,00	0,143
377,50	0,146
380,00	0,144
382,50	0,143
385,00	0,145
387,50	0,143
390,00	0,139
392,50	0,142
395,00	0,143
397,50	0,140
400,00	0,139
402,50	0,138
405,00	0,139
407,50	0,137
410,00	0,138
412,50	0,139
415,00	0,135
417,50	0,136
420,00	0,137
422,50	0,136
425,00	0,134
427,50	0,134
430,00	0,135
432,50	0,133
435,00	0,133
437,50	0,135
440,00	0,134
442,50	0,135
445,00	0,136
447,50	0,137
450,00	0,135
452,50	0,136
455,00	0,137
457,50	0,137
460,00	0,136
462,50	0,139
465,00	0,141
467,50	0,141
470,00	0,144
472,50	0,145
475,00	0,148
477,50	0,152
480,00	0,154
482,50	0,158
485,00	0,162
487,50	0,164
490,00	0,170
492,50	0,175
495,00	0,179
497,50	0,186
500,00	0,193
502,50	0,199
505,00	0,204
507,50	0,210
510,00	0,212
512,50	0,216
515,00	0,222
517,50	0,221
520,00	0,220
522,50	0,220
525,00	0,218
527,50	0,217
530,00	0,212
532,50	0,205
535,00	0,196
537,50	0,190
540,00	0,182
542,50	0,172
545,00	0,165
547,50	0,155
550,00	0,146
552,50	0,138
555,00	0,129
557,50	0,121
560,00	0,113
562,50	0,104
565,00	0,097
567,50	0,092
570,00	0,086
572,50	0,083
575,00	0,080
577,50	0,074
580,00	0,070
582,50	0,068
585,00	0,064
587,50	0,059
590,00	0,059
592,50	0,057
595,00	0,053
597,50	0,051
600,00	0,047
602,50	0,043
605,00	0,043
607,50	0,043
610,00	0,041
612,50	0,039
615,00	0,039
617,50	0,038
620,00	0,035
622,50	0,035
625,00	0,033
627,50	0,031
630,00	0,033
632,50	0,034
635,00	0,031
637,50	0,029
640,00	0,031
642,50	0,029
645,00	0,025
647,50	0,025
650,00	0,025
652,50	0,023
655,00	0,024
657,50	0,027
660,00	0,024
662,50	0,024
665,00	0,024
667,50	0,023
670,00	0,022
672,50	0,021
675,00	0,023
677,50	0,022
680,00	0,019
682,50	0,019
685,00	0,020
687,50	0,020
690,00	0,018
692,50	0,017
695,00	0,018
697,50	0,016
700,00	0,018
702,50	0,018
705,00	0,018
707,50	0,019
710,00	0,014
712,50	0,015
715,00	0,017
717,50	0,017
720,00	0,019
722,50	0,016
725,00	0,013
727,50	0,015
730,00	0,017
732,50	0,015
735,00	0,014
737,50	0,012
740,00	0,013
742,50	0,017
745,00	0,014
747,50	0,013
750,00	0,012
752,50	0,013
755,00	0,016
757,50	0,015
760,00	0,018
762,50	0,017
765,00	0,012
767,50	0,014
770,00	0,014
772,50	0,011
775,00	0,013
777,50	0,013
780,00	0,012
782,50	0,013
785,00	0,015
787,50	0,017
790,00	0,017
792,50	0,011
795,00	0,013
797,50	0,013
800,00	0,013