File: Lambda max, Extincion max y Area/oro/3/5.03e-4.txt
"5.03e-4 - Dataset 213334"
"Wavelength nm."	"Abs."
200,00	2,984
202,50	2,984
205,00	3,322
207,50	2,031
210,00	1,335
212,50	2,734
215,00	3,295
217,50	3,928
220,00	4,196
222,50	1,766
225,00	2,434
227,50	4,549
230,00	4,144
232,50	5,516
235,00	3,032
237,50	1,551
240,00	2,835
242,50	2,888
245,00	3,662
247,50	3,315
250,00	1,945
252,50	2,113
255,00	0,882
257,50	0,547
260,00	1,458
262,50	2,848
265,00	2,946
267,50	2,924
270,00	4,303
272,50	3,682
275,00	1,833
277,50	1,898
280,00	2,685
282,50	1,540
285,00	0,258
287,50	0,598
290,00	0,597
292,50	0,588
295,00	0,580
297,50	0,570
300,00	0,562
302,50	0,554
305,00	0,546
307,50	0,538
310,00	0,531
312,50	0,524
315,00	0,516
317,50	0,509
320,00	0,502
322,50	0,495
325,00	0,489
327,50	0,483
330,00	0,477
332,50	0,472
335,00	0,468
337,50	0,463
340,00	0,459
342,50	0,456
345,00	0,453
347,50	0,451
350,00	0,450
352,50	0,449
355,00	0,448
357,50	0,447
360,00	0,446
362,50	0,445
365,00	0,444
367,50	0,442
370,00	0,440
372,50	0,439
375,00	0,436
377,50	0,434
380,00	0,431
382,50	0,429
385,00	0,426
387,50	0,423
390,00	0,421
392,50	0,418
395,00	0,415
397,50	0,413
400,00	0,410
402,50	0,407
405,00	0,405
407,50	0,403
410,00	0,401
412,50	0,398
415,00	0,396
417,50	0,395
420,00	0,393
422,50	0,391
425,00	0,389
427,50	0,388
430,00	0,387
432,50	0,386
435,00	0,385
437,50	0,384
440,00	0,383
442,50	0,382
445,00	0,382
447,50	0,382
450,00	0,382
452,50	0,382
455,00	0,383
457,50	0,384
460,00	0,385
462,50	0,386
465,00	0,388
467,50	0,391
470,00	0,394
472,50	0,398
475,00	0,403
477,50	0,409
480,00	0,415
482,50	0,424
485,00	0,434
487,50	0,446
490,00	0,459
492,50	0,475
495,00	0,493
497,50	0,513
500,00	0,534
502,50	0,556
505,00	0,579
507,50	0,602
510,00	0,624
512,50	0,645
515,00	0,666
517,50	0,683
520,00	0,698
522,50	0,709
525,00	0,717
527,50	0,722
530,00	0,723
532,50	0,722
535,00	0,718
537,50	0,711
540,00	0,701
542,50	0,688
545,00	0,673
547,50	0,656
550,00	0,637
552,50	0,616
555,00	0,593
557,50	0,570
560,00	0,545
562,50	0,519
565,00	0,493
567,50	0,467
570,00	0,441
572,50	0,417
575,00	0,393
577,50	0,370
580,00	0,348
582,50	0,328
585,00	0,308
587,50	0,289
590,00	0,270
592,50	0,253
595,00	0,238
597,50	0,223
600,00	0,210
602,50	0,198
605,00	0,187
607,50	0,176
610,00	0,166
612,50	0,157
615,00	0,149
617,50	0,141
620,00	0,134
622,50	0,127
625,00	0,121
627,50	0,116
630,00	0,111
632,50	0,106
635,00	0,101
637,50	0,097
640,00	0,093
642,50	0,090
645,00	0,086
647,50	0,083
650,00	0,081
652,50	0,078
655,00	0,075
657,50	0,073
660,00	0,071
662,50	0,069
665,00	0,067
667,50	0,066
670,00	0,064
672,50	0,063
675,00	0,061
677,50	0,059
680,00	0,058
682,50	0,057
685,00	0,056
687,50	0,054
690,00	0,053
692,50	0,052
695,00	0,051
697,50	0,050
700,00	0,049
702,50	0,048
705,00	0,047
707,50	0,046
710,00	0,045
712,50	0,044
715,00	0,044
717,50	0,043
720,00	0,042
722,50	0,041
725,00	0,040
727,50	0,040
730,00	0,039
732,50	0,038
735,00	0,037
737,50	0,037
740,00	0,036
742,50	0,035
745,00	0,035
747,50	0,034
750,00	0,034
752,50	0,033
755,00	0,033
757,50	0,032
760,00	0,031
762,50	0,031
765,00	0,030
767,50	0,030
770,00	0,030
772,50	0,029
775,00	0,027
777,50	0,027
780,00	0,027
782,50	0,026
785,00	0,026
787,50	0,026
790,00	0,026
792,50	0,026
795,00	0,025
797,50	0,025
800,00	0,025