File: Lambda max, Extincion max y Area/oro/3/5e-4.txt
"5e-4 - Dataset 225537"
"Wavelength nm."	"Abs."
200,00	3,050
202,50	3,050
205,00	2,384
207,50	2,278
210,00	4,176
212,50	3,441
215,00	2,709
217,50	3,051
220,00	2,498
222,50	2,183
225,00	3,399
227,50	3,042
230,00	3,656
232,50	2,669
235,00	0,354
237,50	1,138
240,00	1,008
242,50	0,916
245,00	1,777
247,50	1,648
250,00	2,312
252,50	1,379
255,00	0,964
257,50	2,007
260,00	1,080
262,50	0,834
265,00	1,722
267,50	1,040
270,00	0,361
272,50	0,537
275,00	-0,262
277,50	0,820
280,00	0,603
282,50	0,206
285,00	0,248
287,50	0,395
290,00	1,194
292,50	1,481
295,00	0,681
297,50	0,191
300,00	0,219
302,50	0,237
305,00	0,241
307,50	0,218
310,00	0,215
312,50	0,218
315,00	0,215
317,50	0,210
320,00	0,204
322,50	0,200
325,00	0,203
327,50	0,205
330,00	0,196
332,50	0,192
335,00	0,193
337,50	0,190
340,00	0,191
342,50	0,187
345,00	0,192
347,50	0,192
350,00	0,186
352,50	0,188
355,00	0,186
357,50	0,186
360,00	0,186
362,50	0,181
365,00	0,183
367,50	0,183
370,00	0,177
372,50	0,178
375,00	0,177
377,50	0,172
380,00	0,171
382,50	0,171
385,00	0,174
387,50	0,174
390,00	0,171
392,50	0,175
395,00	0,171
397,50	0,168
400,00	0,168
402,50	0,166
405,00	0,167
407,50	0,165
410,00	0,166
412,50	0,166
415,00	0,164
417,50	0,162
420,00	0,162
422,50	0,163
425,00	0,161
427,50	0,161
430,00	0,162
432,50	0,160
435,00	0,161
437,50	0,162
440,00	0,162
442,50	0,160
445,00	0,159
447,50	0,159
450,00	0,163
452,50	0,166
455,00	0,165
457,50	0,165
460,00	0,165
462,50	0,167
465,00	0,170
467,50	0,172
470,00	0,174
472,50	0,175
475,00	0,178
477,50	0,183
480,00	0,188
482,50	0,190
485,00	0,195
487,50	0,202
490,00	0,208
492,50	0,214
495,00	0,222
497,50	0,230
500,00	0,237
502,50	0,247
505,00	0,254
507,50	0,260
510,00	0,265
512,50	0,271
515,00	0,276
517,50	0,278
520,00	0,279
522,50	0,280
525,00	0,279
527,50	0,273
530,00	0,265
532,50	0,257
535,00	0,248
537,50	0,237
540,00	0,228
542,50	0,220
545,00	0,209
547,50	0,198
550,00	0,186
552,50	0,174
555,00	0,163
557,50	0,155
560,00	0,144
562,50	0,135
565,00	0,126
567,50	0,118
570,00	0,110
572,50	0,102
575,00	0,097
577,50	0,090
580,00	0,083
582,50	0,080
585,00	0,076
587,50	0,069
590,00	0,064
592,50	0,060
595,00	0,056
597,50	0,053
600,00	0,050
602,50	0,049
605,00	0,045
607,50	0,040
610,00	0,038
612,50	0,035
615,00	0,033
617,50	0,032
620,00	0,029
622,50	0,029
625,00	0,028
627,50	0,024
630,00	0,023
632,50	0,023
635,00	0,023
637,50	0,021
640,00	0,020
642,50	0,017
645,00	0,017
647,50	0,017
650,00	0,015
652,50	0,016
655,00	0,016
657,50	0,016
660,00	0,016
662,50	0,016
665,00	0,011
667,50	0,010
670,00	0,013
672,50	0,012
675,00	0,013
677,50	0,011
680,00	0,011
682,50	0,010
685,00	0,010
687,50	0,008
690,00	0,007
692,50	0,006
695,00	0,008
697,50	0,009
700,00	0,006
702,50	0,006
705,00	0,008
707,50	0,008
710,00	0,007
712,50	0,006
715,00	0,007
717,50	0,006
720,00	0,005
722,50	0,008
725,00	0,006
727,50	0,005
730,00	0,004
732,50	0,001
735,00	0,003
737,50	0,005
740,00	0,003
742,50	0,003
745,00	0,003
747,50	0,005
750,00	0,004
752,50	0,002
755,00	0,003
757,50	0,006
760,00	0,006
762,50	0,001
765,00	-0,001
767,50	0,003
770,00	0,008
772,50	0,007
775,00	0,002
777,50	0,000
780,00	0,002
782,50	0,004
785,00	0,003
787,50	0,004
790,00	0,005
792,50	0,004
795,00	0,001
797,50	0,001
800,00	0,001