File: Lambda max, Extincion max y Area/oro/2/6.15e-4.txt
"6.15e-4 - Dataset 213858"
"Wavelength nm."	"Abs."
200,00	2,706
202,50	2,706
205,00	3,200
207,50	2,313
210,00	2,317
212,50	2,482
215,00	3,307
217,50	4,759
220,00	3,420
222,50	3,209
225,00	2,702
227,50	2,239
230,00	2,857
232,50	3,030
235,00	2,322
237,50	4,557
240,00	2,609
242,50	1,820
245,00	3,554
247,50	2,799
250,00	1,483
252,50	1,741
255,00	4,051
257,50	2,331
260,00	1,724
262,50	0,863
265,00	1,788
267,50	3,523
270,00	3,563
272,50	2,376
275,00	0,632
277,50	1,634
280,00	0,843
282,50	0,541
285,00	0,623
287,50	0,601
290,00	0,599
292,50	0,597
295,00	0,595
297,50	0,590
300,00	0,584
302,50	0,580
305,00	0,576
307,50	0,572
310,00	0,568
312,50	0,564
315,00	0,559
317,50	0,555
320,00	0,549
322,50	0,545
325,00	0,540
327,50	0,534
330,00	0,529
332,50	0,525
335,00	0,521
337,50	0,516
340,00	0,511
342,50	0,507
345,00	0,504
347,50	0,500
350,00	0,498
352,50	0,497
355,00	0,497
357,50	0,496
360,00	0,496
362,50	0,496
365,00	0,496
367,50	0,495
370,00	0,494
372,50	0,493
375,00	0,491
377,50	0,490
380,00	0,489
382,50	0,487
385,00	0,485
387,50	0,483
390,00	0,481
392,50	0,479
395,00	0,477
397,50	0,475
400,00	0,473
402,50	0,470
405,00	0,468
407,50	0,466
410,00	0,463
412,50	0,461
415,00	0,459
417,50	0,457
420,00	0,455
422,50	0,452
425,00	0,450
427,50	0,448
430,00	0,446
432,50	0,444
435,00	0,442
437,50	0,440
440,00	0,438
442,50	0,436
445,00	0,434
447,50	0,432
450,00	0,431
452,50	0,429
455,00	0,428
457,50	0,426
460,00	0,425
462,50	0,424
465,00	0,424
467,50	0,424
470,00	0,424
472,50	0,424
475,00	0,425
477,50	0,427
480,00	0,430
482,50	0,433
485,00	0,438
487,50	0,445
490,00	0,453
492,50	0,464
495,00	0,477
497,50	0,491
500,00	0,507
502,50	0,524
505,00	0,543
507,50	0,562
510,00	0,582
512,50	0,603
515,00	0,624
517,50	0,644
520,00	0,664
522,50	0,682
525,00	0,698
527,50	0,714
530,00	0,728
532,50	0,740
535,00	0,751
537,50	0,760
540,00	0,767
542,50	0,774
545,00	0,779
547,50	0,782
550,00	0,785
552,50	0,786
555,00	0,787
557,50	0,786
560,00	0,784
562,50	0,782
565,00	0,778
567,50	0,774
570,00	0,769
572,50	0,763
575,00	0,757
577,50	0,750
580,00	0,742
582,50	0,734
585,00	0,726
587,50	0,717
590,00	0,707
592,50	0,698
595,00	0,688
597,50	0,679
600,00	0,669
602,50	0,659
605,00	0,649
607,50	0,639
610,00	0,629
612,50	0,619
615,00	0,609
617,50	0,598
620,00	0,588
622,50	0,578
625,00	0,568
627,50	0,559
630,00	0,549
632,50	0,539
635,00	0,529
637,50	0,519
640,00	0,509
642,50	0,499
645,00	0,489
647,50	0,480
650,00	0,470
652,50	0,461
655,00	0,451
657,50	0,442
660,00	0,433
662,50	0,424
665,00	0,415
667,50	0,406
670,00	0,397
672,50	0,389
675,00	0,381
677,50	0,372
680,00	0,364
682,50	0,355
685,00	0,347
687,50	0,339
690,00	0,331
692,50	0,323
695,00	0,315
697,50	0,308
700,00	0,301
702,50	0,293
705,00	0,286
707,50	0,279
710,00	0,272
712,50	0,265
715,00	0,259
717,50	0,252
720,00	0,246
722,50	0,240
725,00	0,233
727,50	0,228
730,00	0,221
732,50	0,216
735,00	0,210
737,50	0,205
740,00	0,200
742,50	0,194
745,00	0,189
747,50	0,184
750,00	0,179
752,50	0,175
755,00	0,170
757,50	0,165
760,00	0,161
762,50	0,157
765,00	0,153
767,50	0,149
770,00	0,145
772,50	0,141
775,00	0,137
777,50	0,134
780,00	0,130
782,50	0,127
785,00	0,124
787,50	0,121
790,00	0,117
792,50	0,115
795,00	0,112
797,50	0,110
800,00	0,110