File: Espectro Uv-Vis/pH/0.25ml 1M (pH=2.5)/0.24_1M.txt
"0.25_1M - Dataset 182155"
"Wavelength nm."	"Abs."
200,00	-0,156
202,50	-0,156
205,00	0,184
207,50	2,323
210,00	4,426
212,50	2,783
215,00	1,421
217,50	1,790
220,00	1,393
222,50	3,159
225,00	2,991
227,50	0,789
230,00	1,205
232,50	1,001
235,00	1,386
237,50	2,143
240,00	1,858
242,50	1,913
245,00	2,878
247,50	1,857
250,00	1,719
252,50	1,973
255,00	-0,227
257,50	0,584
260,00	0,402
262,50	1,311
265,00	2,560
267,50	1,386
270,00	0,878
272,50	1,933
275,00	3,306
277,50	1,622
280,00	-0,133
282,50	0,158
285,00	0,114
287,50	0,134
290,00	0,141
292,50	0,135
295,00	0,132
297,50	0,137
300,00	0,139
302,50	0,139
305,00	0,138
307,50	0,138
310,00	0,138
312,50	0,137
315,00	0,135
317,50	0,134
320,00	0,134
322,50	0,132
325,00	0,131
327,50	0,131
330,00	0,130
332,50	0,130
335,00	0,129
337,50	0,129
340,00	0,129
342,50	0,128
345,00	0,128
347,50	0,128
350,00	0,128
352,50	0,128
355,00	0,128
357,50	0,128
360,00	0,128
362,50	0,128
365,00	0,128
367,50	0,129
370,00	0,130
372,50	0,130
375,00	0,130
377,50	0,130
380,00	0,129
382,50	0,129
385,00	0,129
387,50	0,129
390,00	0,129
392,50	0,129
395,00	0,129
397,50	0,129
400,00	0,129
402,50	0,128
405,00	0,128
407,50	0,128
410,00	0,128
412,50	0,127
415,00	0,127
417,50	0,127
420,00	0,127
422,50	0,126
425,00	0,126
427,50	0,125
430,00	0,125
432,50	0,125
435,00	0,125
437,50	0,124
440,00	0,124
442,50	0,123
445,00	0,123
447,50	0,123
450,00	0,122
452,50	0,122
455,00	0,121
457,50	0,121
460,00	0,120
462,50	0,120
465,00	0,119
467,50	0,119
470,00	0,118
472,50	0,118
475,00	0,117
477,50	0,117
480,00	0,117
482,50	0,117
485,00	0,117
487,50	0,117
490,00	0,117
492,50	0,118
495,00	0,119
497,50	0,120
500,00	0,122
502,50	0,124
505,00	0,125
507,50	0,127
510,00	0,129
512,50	0,131
515,00	0,133
517,50	0,135
520,00	0,137
522,50	0,139
525,00	0,140
527,50	0,142
530,00	0,143
532,50	0,145
535,00	0,146
537,50	0,147
540,00	0,148
542,50	0,149
545,00	0,150
547,50	0,151
550,00	0,152
552,50	0,152
555,00	0,153
557,50	0,154
560,00	0,155
562,50	0,155
565,00	0,156
567,50	0,156
570,00	0,157
572,50	0,157
575,00	0,157
577,50	0,158
580,00	0,158
582,50	0,158
585,00	0,159
587,50	0,159
590,00	0,159
592,50	0,159
595,00	0,159
597,50	0,159
600,00	0,158
602,50	0,158
605,00	0,158
607,50	0,158
610,00	0,158
612,50	0,157
615,00	0,157
617,50	0,157
620,00	0,157
622,50	0,156
625,00	0,156
627,50	0,155
630,00	0,155
632,50	0,154
635,00	0,154
637,50	0,153
640,00	0,153
642,50	0,152
645,00	0,152
647,50	0,151
650,00	0,151
652,50	0,150
655,00	0,150
657,50	0,149
660,00	0,149
662,50	0,149
665,00	0,148
667,50	0,147
670,00	0,147
672,50	0,146
675,00	0,146
677,50	0,145
680,00	0,145
682,50	0,145
685,00	0,144
687,50	0,144
690,00	0,143
692,50	0,142
695,00	0,142
697,50	0,142
700,00	0,142
702,50	0,141
705,00	0,141
707,50	0,140
710,00	0,140
712,50	0,140
715,00	0,140
717,50	0,139
720,00	0,139
722,50	0,138
725,00	0,138
727,50	0,138
730,00	0,138
732,50	0,138
735,00	0,137
737,50	0,137
740,00	0,137
742,50	0,136
745,00	0,136
747,50	0,136
750,00	0,136
752,50	0,136
755,00	0,135
757,50	0,135
760,00	0,135
762,50	0,135
765,00	0,134
767,50	0,134
770,00	0,134
772,50	0,133
775,00	0,133
777,50	0,133
780,00	0,133
782,50	0,132
785,00	0,132
787,50	0,132
790,00	0,132
792,50	0,132
795,00	0,132
797,50	0,132
800,00	0,132