File: Espectro Uv-Vis/citrato/1.20/1.19.txt
"1.2ml - Dataset 231347"
"Wavelength nm."	"Abs."
200,00	2,514
202,50	2,514
205,00	3,522
207,50	3,924
210,00	2,236
212,50	1,453
215,00	0,651
217,50	2,159
220,00	4,905
222,50	2,044
225,00	0,402
227,50	2,467
230,00	2,395
232,50	1,385
235,00	2,982
237,50	2,242
240,00	1,684
242,50	2,202
245,00	0,876
247,50	-0,221
250,00	0,506
252,50	2,080
255,00	0,529
257,50	0,028
260,00	0,495
262,50	-0,167
265,00	1,477
267,50	1,833
270,00	1,073
272,50	0,383
275,00	0,670
277,50	0,695
280,00	0,009
282,50	0,118
285,00	0,272
287,50	-0,216
290,00	1,488
292,50	1,501
295,00	-0,184
297,50	0,238
300,00	0,268
302,50	0,278
305,00	0,260
307,50	0,261
310,00	0,250
312,50	0,240
315,00	0,240
317,50	0,240
320,00	0,239
322,50	0,237
325,00	0,226
327,50	0,225
330,00	0,218
332,50	0,217
335,00	0,222
337,50	0,214
340,00	0,211
342,50	0,217
345,00	0,216
347,50	0,215
350,00	0,212
352,50	0,209
355,00	0,206
357,50	0,210
360,00	0,212
362,50	0,208
365,00	0,200
367,50	0,200
370,00	0,201
372,50	0,201
375,00	0,204
377,50	0,202
380,00	0,198
382,50	0,197
385,00	0,196
387,50	0,192
390,00	0,193
392,50	0,193
395,00	0,191
397,50	0,191
400,00	0,189
402,50	0,188
405,00	0,186
407,50	0,187
410,00	0,186
412,50	0,183
415,00	0,182
417,50	0,185
420,00	0,184
422,50	0,183
425,00	0,183
427,50	0,182
430,00	0,180
432,50	0,180
435,00	0,182
437,50	0,183
440,00	0,182
442,50	0,182
445,00	0,182
447,50	0,184
450,00	0,185
452,50	0,186
455,00	0,186
457,50	0,186
460,00	0,187
462,50	0,189
465,00	0,191
467,50	0,193
470,00	0,198
472,50	0,201
475,00	0,205
477,50	0,208
480,00	0,212
482,50	0,217
485,00	0,223
487,50	0,230
490,00	0,235
492,50	0,242
495,00	0,252
497,50	0,263
500,00	0,271
502,50	0,279
505,00	0,289
507,50	0,297
510,00	0,305
512,50	0,311
515,00	0,313
517,50	0,315
520,00	0,315
522,50	0,313
525,00	0,307
527,50	0,299
530,00	0,294
532,50	0,286
535,00	0,273
537,50	0,261
540,00	0,249
542,50	0,233
545,00	0,219
547,50	0,206
550,00	0,191
552,50	0,179
555,00	0,167
557,50	0,155
560,00	0,145
562,50	0,135
565,00	0,125
567,50	0,116
570,00	0,108
572,50	0,099
575,00	0,093
577,50	0,087
580,00	0,080
582,50	0,076
585,00	0,072
587,50	0,067
590,00	0,062
592,50	0,059
595,00	0,054
597,50	0,051
600,00	0,047
602,50	0,045
605,00	0,041
607,50	0,039
610,00	0,038
612,50	0,037
615,00	0,033
617,50	0,030
620,00	0,029
622,50	0,029
625,00	0,027
627,50	0,026
630,00	0,026
632,50	0,024
635,00	0,022
637,50	0,020
640,00	0,018
642,50	0,021
645,00	0,020
647,50	0,015
650,00	0,015
652,50	0,013
655,00	0,014
657,50	0,015
660,00	0,013
662,50	0,012
665,00	0,012
667,50	0,012
670,00	0,010
672,50	0,009
675,00	0,008
677,50	0,009
680,00	0,009
682,50	0,011
685,00	0,007
687,50	0,006
690,00	0,009
692,50	0,006
695,00	0,007
697,50	0,007
700,00	0,007
702,50	0,004
705,00	0,004
707,50	0,006
710,00	0,004
712,50	0,003
715,00	0,006
717,50	0,003
720,00	0,004
722,50	0,007
725,00	0,004
727,50	0,004
730,00	0,006
732,50	0,004
735,00	0,002
737,50	0,002
740,00	0,002
742,50	0,003
745,00	0,001
747,50	0,004
750,00	0,004
752,50	0,002
755,00	0,004
757,50	0,004
760,00	0,002
762,50	-0,002
765,00	0,000
767,50	-0,000
770,00	0,002
772,50	0,003
775,00	-0,000
777,50	0,000
780,00	-0,001
782,50	-0,001
785,00	0,004
787,50	0,003
790,00	0,000
792,50	-0,003
795,00	-0,001
797,50	0,000
800,00	0,000