File: Espectro Uv-Vis/citrato/1.20/1.20.txt
"1.2ml smoothing - Dataset 215511"
"Wavelength nm."	"Abs."
200,00	1,910
202,50	1,910
205,00	0,600
207,50	1,069
210,00	1,032
212,50	3,118
215,00	3,452
217,50	-0,305
220,00	0,441
222,50	2,790
225,00	1,515
227,50	1,686
230,00	1,433
232,50	-0,282
235,00	1,453
237,50	2,923
240,00	2,000
242,50	0,165
245,00	-0,222
247,50	0,773
250,00	0,971
252,50	0,781
255,00	1,246
257,50	1,042
260,00	0,517
262,50	1,101
265,00	1,720
267,50	0,271
270,00	0,530
272,50	0,651
275,00	0,181
277,50	1,024
280,00	0,568
282,50	0,265
285,00	0,522
287,50	0,436
290,00	0,439
292,50	0,445
295,00	0,353
297,50	0,294
300,00	0,279
302,50	0,270
305,00	0,263
307,50	0,256
310,00	0,250
312,50	0,246
315,00	0,241
317,50	0,237
320,00	0,234
322,50	0,230
325,00	0,227
327,50	0,224
330,00	0,222
332,50	0,220
335,00	0,218
337,50	0,216
340,00	0,215
342,50	0,214
345,00	0,213
347,50	0,212
350,00	0,211
352,50	0,210
355,00	0,209
357,50	0,208
360,00	0,207
362,50	0,205
365,00	0,204
367,50	0,203
370,00	0,202
372,50	0,200
375,00	0,197
377,50	0,195
380,00	0,193
382,50	0,191
385,00	0,189
387,50	0,188
390,00	0,186
392,50	0,185
395,00	0,184
397,50	0,182
400,00	0,181
402,50	0,180
405,00	0,179
407,50	0,178
410,00	0,177
412,50	0,176
415,00	0,176
417,50	0,175
420,00	0,174
422,50	0,174
425,00	0,173
427,50	0,173
430,00	0,173
432,50	0,172
435,00	0,172
437,50	0,172
440,00	0,172
442,50	0,173
445,00	0,173
447,50	0,174
450,00	0,174
452,50	0,175
455,00	0,176
457,50	0,177
460,00	0,178
462,50	0,180
465,00	0,182
467,50	0,184
470,00	0,187
472,50	0,189
475,00	0,192
477,50	0,196
480,00	0,200
482,50	0,204
485,00	0,210
487,50	0,215
490,00	0,222
492,50	0,228
495,00	0,235
497,50	0,243
500,00	0,250
502,50	0,256
505,00	0,263
507,50	0,269
510,00	0,274
512,50	0,278
515,00	0,281
517,50	0,282
520,00	0,281
522,50	0,279
525,00	0,274
527,50	0,268
530,00	0,261
532,50	0,253
535,00	0,243
537,50	0,232
540,00	0,220
542,50	0,208
545,00	0,196
547,50	0,184
550,00	0,173
552,50	0,162
555,00	0,151
557,50	0,141
560,00	0,131
562,50	0,122
565,00	0,114
567,50	0,106
570,00	0,099
572,50	0,092
575,00	0,086
577,50	0,081
580,00	0,076
582,50	0,071
585,00	0,067
587,50	0,063
590,00	0,059
592,50	0,056
595,00	0,052
597,50	0,049
600,00	0,047
602,50	0,044
605,00	0,042
607,50	0,040
610,00	0,038
612,50	0,036
615,00	0,035
617,50	0,033
620,00	0,031
622,50	0,030
625,00	0,029
627,50	0,027
630,00	0,026
632,50	0,025
635,00	0,024
637,50	0,023
640,00	0,022
642,50	0,021
645,00	0,021
647,50	0,020
650,00	0,019
652,50	0,018
655,00	0,018
657,50	0,017
660,00	0,016
662,50	0,016
665,00	0,015
667,50	0,015
670,00	0,015
672,50	0,014
675,00	0,014
677,50	0,013
680,00	0,013
682,50	0,012
685,00	0,012
687,50	0,011
690,00	0,011
692,50	0,011
695,00	0,011
697,50	0,010
700,00	0,010
702,50	0,010
705,00	0,009
707,50	0,009
710,00	0,009
712,50	0,009
715,00	0,008
717,50	0,008
720,00	0,008
722,50	0,008
725,00	0,008
727,50	0,007
730,00	0,007
732,50	0,007
735,00	0,007
737,50	0,007
740,00	0,007
742,50	0,006
745,00	0,006
747,50	0,006
750,00	0,006
752,50	0,006
755,00	0,005
757,50	0,006
760,00	0,005
762,50	0,005
765,00	0,005
767,50	0,005
770,00	0,005
772,50	0,004
775,00	0,004
777,50	0,004
780,00	0,004
782,50	0,004
785,00	0,004
787,50	0,004
790,00	0,004
792,50	0,004
795,00	0,004
797,50	0,004
800,00	0,004