File: Espectro Uv-Vis/citrato/1.80/1.80.txt
"1.8 - Dataset 200718"
"Wavelength nm."	"Abs."
200,00	0.67
202,50	0.603
205,00	0.56
207,50	0.526
210,00	0.494
212,50	0.466
215,00	0.44
217,50	0.416
220,00	0.394
222,50	0.377
225,00	0.363
227,50	0.351
230,00	0.344
232,50	0.337
235,00	0.331
237,50	0.328
240,00	0.325
242,50	0.322
245,00	0.32
247,50	0.317
250,00	0.314
252,50	0.312
255,00	0.31
257,50	0.307
260,00	0.303
262,50	0.298
265,00	0.293
267,50	0.289
270,00	0.282
272,50	0.276
275,00	0.27
277,50	0.265
280,00	0.259
282,50	0.253
285,00	0.248
287,50	0.243
290,00	0.239
292,50	0.231
295,00	0.229
297,50	0.222
300,00	0.22
302,50	0.215
305,00	0.211
307,50	0.208
310,00	0.205
312,50	0.204
315,00	0.199
317,50	0.197
320,00	0.194
322,50	0.193
325,00	0.191
327,50	0.188
330,00	0.187
332,50	0.186
335,00	0.183
337,50	0.182
340,00	0.182
342,50	0.181
345,00	0.181
347,50	0.179
350,00	0.179
352,50	0.178
355,00	0.178
357,50	0.177
360,00	0.176
362,50	0.174
365,00	0.174
367,50	0.173
370,00	0.171
372,50	0.17
375,00	0.17
377,50	0.169
380,00	0.168
382,50	0.167
385,00	0.166
387,50	0.164
390,00	0.164
392,50	0.163
395,00	0.162
397,50	0.161
400,00	0.16
402,50	0.16
405,00	0.159
407,50	0.158
410,00	0.158
412,50	0.156
415,00	0.156
417,50	0.156
420,00	0.155
422,50	0.155
425,00	0.155
427,50	0.154
430,00	0.154
432,50	0.154
435,00	0.154
437,50	0.153
440,00	0.154
442,50	0.154
445,00	0.155
447,50	0.155
450,00	0.156
452,50	0.157
455,00	0.157
457,50	0.159
460,00	0.16
462,50	0.162
465,00	0.164
467,50	0.166
470,00	0.168
472,50	0.17
475,00	0.174
477,50	0.177
480,00	0.18
482,50	0.184
485,00	0.189
487,50	0.194
490,00	0.199
492,50	0.205
495,00	0.211
497,50	0.218
500,00	0.225
502,50	0.231
505,00	0.237
507,50	0.243
510,00	0.248
512,50	0.252
515,00	0.254
517,50	0.256
520,00	0.256
522,50	0.255
525,00	0.252
527,50	0.247
530,00	0.241
532,50	0.234
535,00	0.226
537,50	0.217
540,00	0.207
542,50	0.195
545,00	0.185
547,50	0.174
550,00	0.163
552,50	0.152
555,00	0.142
557,50	0.132
560,00	0.123
562,50	0.114
565,00	0.106
567,50	0.098
570,00	0.09
572,50	0.084
575,00	0.077
577,50	0.071
580,00	0.066
582,50	0.061
585,00	0.056
587,50	0.052
590,00	0.047
592,50	0.044
595,00	0.041
597,50	0.038
600,00	0.035
602,50	0.032
605,00	0.03
607,50	0.028
610,00	0.026
612,50	0.024
615,00	0.022
617,50	0.02
620,00	0.019
622,50	0.017
625,00	0.016
627,50	0.015
630,00	0.013
632,50	0.012
635,00	0.011
637,50	0.01
640,00	0.009
642,50	0.009
645,00	0.008
647,50	0.007
650,00	0.006
652,50	0.006
655,00	0.005
657,50	0.005
660,00	0.004
662,50	0.004
665,00	0.003
667,50	0.002
670,00	0.002
672,50	0.002
675,00	0.001
677,50	0
680,00	0
682,50	0
685,00	0
687,50	-0.001
690,00	-0.001
692,50	-0.001
695,00	-0.002
697,50	-0.002
700,00	-0.002
702,50	-0.002
705,00	-0.002
707,50	-0.002
710,00	-0.001
712,50	-0.002
715,00	-0.002
717,50	-0.003
720,00	-0.003
722,50	-0.003
725,00	-0.003
727,50	-0.003
730,00	-0.003
732,50	-0.003
735,00	-0.003
737,50	-0.003
740,00	-0.004
742,50	-0.003
745,00	-0.004
747,50	-0.004
750,00	-0.004
752,50	-0.004
755,00	-0.004
757,50	-0.004
760,00	-0.005
762,50	-0.004
765,00	-0.004
767,50	-0.005
770,00	-0.004
772,50	-0.004
775,00	-0.003
777,50	-0.003
780,00	-0.003
782,50	-0.004
785,00	-0.004
787,50	-0.004
790,00	-0.005
792,50	-0.005
795,00	-0.004
797,50	-0.005
800,00	-0.005