File: Espectro Uv-Vis/citrato/1.80/1.81.txt
"1.8 - Dataset 191059"
"Wavelength nm."	"Abs."
200,00	5,437
202,50	5,437
205,00	3,834
207,50	2,242
210,00	3,358
212,50	2,993
215,00	2,261
217,50	2,071
220,00	1,317
222,50	1,227
225,00	2,890
227,50	3,210
230,00	0,789
232,50	0,985
235,00	0,987
237,50	-0,311
240,00	0,025
242,50	0,040
245,00	0,359
247,50	0,891
250,00	1,230
252,50	2,287
255,00	3,001
257,50	0,941
260,00	0,991
262,50	2,682
265,00	1,629
267,50	1,172
270,00	2,939
272,50	1,449
275,00	0,373
277,50	0,933
280,00	0,306
282,50	0,163
285,00	0,306
287,50	0,332
290,00	0,349
292,50	0,339
295,00	0,309
297,50	0,295
300,00	0,286
302,50	0,281
305,00	0,277
307,50	0,273
310,00	0,270
312,50	0,267
315,00	0,263
317,50	0,259
320,00	0,256
322,50	0,253
325,00	0,251
327,50	0,248
330,00	0,246
332,50	0,244
335,00	0,242
337,50	0,240
340,00	0,239
342,50	0,238
345,00	0,236
347,50	0,235
350,00	0,235
352,50	0,234
355,00	0,232
357,50	0,231
360,00	0,230
362,50	0,229
365,00	0,228
367,50	0,227
370,00	0,225
372,50	0,224
375,00	0,223
377,50	0,222
380,00	0,221
382,50	0,219
385,00	0,218
387,50	0,216
390,00	0,215
392,50	0,214
395,00	0,213
397,50	0,212
400,00	0,210
402,50	0,209
405,00	0,208
407,50	0,207
410,00	0,206
412,50	0,206
415,00	0,205
417,50	0,204
420,00	0,204
422,50	0,203
425,00	0,203
427,50	0,202
430,00	0,202
432,50	0,202
435,00	0,202
437,50	0,202
440,00	0,202
442,50	0,202
445,00	0,202
447,50	0,203
450,00	0,203
452,50	0,204
455,00	0,205
457,50	0,206
460,00	0,208
462,50	0,209
465,00	0,211
467,50	0,213
470,00	0,216
472,50	0,218
475,00	0,221
477,50	0,225
480,00	0,229
482,50	0,233
485,00	0,238
487,50	0,244
490,00	0,250
492,50	0,257
495,00	0,265
497,50	0,272
500,00	0,280
502,50	0,287
505,00	0,294
507,50	0,301
510,00	0,307
512,50	0,311
515,00	0,315
517,50	0,317
520,00	0,317
522,50	0,315
525,00	0,311
527,50	0,306
530,00	0,299
532,50	0,290
535,00	0,281
537,50	0,270
540,00	0,259
542,50	0,246
545,00	0,234
547,50	0,222
550,00	0,210
552,50	0,199
555,00	0,188
557,50	0,178
560,00	0,167
562,50	0,158
565,00	0,149
567,50	0,141
570,00	0,133
572,50	0,126
575,00	0,119
577,50	0,114
580,00	0,108
582,50	0,103
585,00	0,099
587,50	0,094
590,00	0,090
592,50	0,086
595,00	0,083
597,50	0,079
600,00	0,077
602,50	0,074
605,00	0,071
607,50	0,069
610,00	0,067
612,50	0,064
615,00	0,063
617,50	0,061
620,00	0,059
622,50	0,057
625,00	0,056
627,50	0,055
630,00	0,054
632,50	0,052
635,00	0,051
637,50	0,050
640,00	0,049
642,50	0,048
645,00	0,047
647,50	0,046
650,00	0,045
652,50	0,044
655,00	0,044
657,50	0,043
660,00	0,042
662,50	0,042
665,00	0,041
667,50	0,040
670,00	0,040
672,50	0,039
675,00	0,039
677,50	0,038
680,00	0,038
682,50	0,037
685,00	0,037
687,50	0,037
690,00	0,036
692,50	0,036
695,00	0,035
697,50	0,035
700,00	0,035
702,50	0,034
705,00	0,034
707,50	0,034
710,00	0,033
712,50	0,033
715,00	0,032
717,50	0,032
720,00	0,032
722,50	0,031
725,00	0,031
727,50	0,031
730,00	0,031
732,50	0,030
735,00	0,030
737,50	0,030
740,00	0,030
742,50	0,030
745,00	0,029
747,50	0,029
750,00	0,029
752,50	0,029
755,00	0,029
757,50	0,028
760,00	0,028
762,50	0,028
765,00	0,028
767,50	0,028
770,00	0,028
772,50	0,027
775,00	0,027
777,50	0,027
780,00	0,027
782,50	0,027
785,00	0,027
787,50	0,027
790,00	0,027
792,50	0,027
795,00	0,026
797,50	0,026
800,00	0,026