File: Lambda max, Extincion max y Area/citrato/0.25/0.25.txt
"0.25_2 - Dataset 200050"
"Wavelength nm."	"Abs."
200,00	0,141
202,50	0,141
205,00	0,139
207,50	0,138
210,00	0,138
212,50	0,138
215,00	0,139
217,50	0,140
220,00	0,140
222,50	0,140
225,00	0,140
227,50	0,139
230,00	0,139
232,50	0,137
235,00	0,137
237,50	0,136
240,00	0,136
242,50	0,137
245,00	0,137
247,50	0,137
250,00	0,138
252,50	0,139
255,00	0,140
257,50	0,141
260,00	0,141
262,50	0,142
265,00	0,142
267,50	0,143
270,00	0,143
272,50	0,143
275,00	0,143
277,50	0,143
280,00	0,142
282,50	0,142
285,00	0,141
287,50	0,141
290,00	0,140
292,50	0,139
295,00	0,140
297,50	0,139
300,00	0,137
302,50	0,137
305,00	0,137
307,50	0,136
310,00	0,136
312,50	0,136
315,00	0,135
317,50	0,135
320,00	0,134
322,50	0,134
325,00	0,133
327,50	0,133
330,00	0,132
332,50	0,132
335,00	0,131
337,50	0,131
340,00	0,130
342,50	0,130
345,00	0,130
347,50	0,129
350,00	0,129
352,50	0,129
355,00	0,129
357,50	0,130
360,00	0,130
362,50	0,130
365,00	0,130
367,50	0,130
370,00	0,131
372,50	0,131
375,00	0,131
377,50	0,131
380,00	0,131
382,50	0,132
385,00	0,132
387,50	0,132
390,00	0,132
392,50	0,132
395,00	0,132
397,50	0,132
400,00	0,132
402,50	0,132
405,00	0,132
407,50	0,131
410,00	0,131
412,50	0,131
415,00	0,131
417,50	0,130
420,00	0,130
422,50	0,130
425,00	0,130
427,50	0,129
430,00	0,128
432,50	0,128
435,00	0,128
437,50	0,127
440,00	0,127
442,50	0,126
445,00	0,126
447,50	0,126
450,00	0,125
452,50	0,125
455,00	0,124
457,50	0,124
460,00	0,124
462,50	0,123
465,00	0,123
467,50	0,123
470,00	0,122
472,50	0,122
475,00	0,122
477,50	0,122
480,00	0,122
482,50	0,123
485,00	0,123
487,50	0,125
490,00	0,126
492,50	0,129
495,00	0,132
497,50	0,136
500,00	0,140
502,50	0,144
505,00	0,150
507,50	0,155
510,00	0,160
512,50	0,166
515,00	0,171
517,50	0,177
520,00	0,182
522,50	0,186
525,00	0,191
527,50	0,194
530,00	0,198
532,50	0,201
535,00	0,204
537,50	0,206
540,00	0,208
542,50	0,210
545,00	0,211
547,50	0,212
550,00	0,212
552,50	0,213
555,00	0,213
557,50	0,213
560,00	0,213
562,50	0,212
565,00	0,211
567,50	0,211
570,00	0,210
572,50	0,209
575,00	0,207
577,50	0,206
580,00	0,205
582,50	0,203
585,00	0,202
587,50	0,201
590,00	0,199
592,50	0,198
595,00	0,196
597,50	0,195
600,00	0,193
602,50	0,192
605,00	0,190
607,50	0,189
610,00	0,187
612,50	0,186
615,00	0,184
617,50	0,182
620,00	0,181
622,50	0,179
625,00	0,177
627,50	0,176
630,00	0,174
632,50	0,173
635,00	0,171
637,50	0,169
640,00	0,168
642,50	0,166
645,00	0,164
647,50	0,163
650,00	0,161
652,50	0,160
655,00	0,158
657,50	0,157
660,00	0,155
662,50	0,154
665,00	0,152
667,50	0,150
670,00	0,148
672,50	0,147
675,00	0,145
677,50	0,143
680,00	0,142
682,50	0,140
685,00	0,139
687,50	0,138
690,00	0,136
692,50	0,134
695,00	0,133
697,50	0,132
700,00	0,130
702,50	0,129
705,00	0,128
707,50	0,127
710,00	0,125
712,50	0,124
715,00	0,122
717,50	0,121
720,00	0,120
722,50	0,119
725,00	0,117
727,50	0,116
730,00	0,115
732,50	0,114
735,00	0,112
737,50	0,111
740,00	0,110
742,50	0,109
745,00	0,108
747,50	0,107
750,00	0,106
752,50	0,104
755,00	0,103
757,50	0,102
760,00	0,101
762,50	0,100
765,00	0,099
767,50	0,099
770,00	0,098
772,50	0,097
775,00	0,096
777,50	0,095
780,00	0,095
782,50	0,093
785,00	0,092
787,50	0,091
790,00	0,090
792,50	0,089
795,00	0,088
797,50	0,088
800,00	0,088