File: Lambda max, Extincion max y Area/citrato/1.00/0.9.txt
"1ml - Dataset 231633"
"Wavelength nm."	"Abs."
200,00	3,140
202,50	3,140
205,00	1,384
207,50	1,031
210,00	2,520
212,50	2,154
215,00	2,614
217,50	2,121
220,00	2,156
222,50	3,399
225,00	1,095
227,50	0,463
230,00	1,335
232,50	1,372
235,00	1,636
237,50	1,641
240,00	2,220
242,50	0,953
245,00	0,861
247,50	0,309
250,00	0,951
252,50	1,765
255,00	0,847
257,50	1,846
260,00	1,341
262,50	0,108
265,00	0,188
267,50	2,084
270,00	1,929
272,50	0,961
275,00	1,298
277,50	0,398
280,00	0,165
282,50	0,123
285,00	0,198
287,50	0,123
290,00	1,538
292,50	2,281
295,00	0,453
297,50	0,268
300,00	0,223
302,50	0,228
305,00	0,222
307,50	0,208
310,00	0,204
312,50	0,215
315,00	0,230
317,50	0,224
320,00	0,213
322,50	0,219
325,00	0,214
327,50	0,201
330,00	0,203
332,50	0,209
335,00	0,208
337,50	0,209
340,00	0,206
342,50	0,201
345,00	0,195
347,50	0,199
350,00	0,204
352,50	0,201
355,00	0,197
357,50	0,195
360,00	0,198
362,50	0,199
365,00	0,195
367,50	0,193
370,00	0,192
372,50	0,191
375,00	0,189
377,50	0,190
380,00	0,188
382,50	0,186
385,00	0,189
387,50	0,188
390,00	0,185
392,50	0,184
395,00	0,183
397,50	0,182
400,00	0,183
402,50	0,181
405,00	0,179
407,50	0,181
410,00	0,178
412,50	0,178
415,00	0,177
417,50	0,176
420,00	0,177
422,50	0,177
425,00	0,176
427,50	0,177
430,00	0,177
432,50	0,175
435,00	0,177
437,50	0,176
440,00	0,176
442,50	0,180
445,00	0,180
447,50	0,178
450,00	0,177
452,50	0,182
455,00	0,187
457,50	0,185
460,00	0,184
462,50	0,186
465,00	0,189
467,50	0,193
470,00	0,196
472,50	0,200
475,00	0,203
477,50	0,207
480,00	0,211
482,50	0,216
485,00	0,221
487,50	0,227
490,00	0,234
492,50	0,245
495,00	0,252
497,50	0,262
500,00	0,273
502,50	0,278
505,00	0,289
507,50	0,299
510,00	0,304
512,50	0,307
515,00	0,311
517,50	0,317
520,00	0,319
522,50	0,315
525,00	0,313
527,50	0,309
530,00	0,301
532,50	0,291
535,00	0,281
537,50	0,269
540,00	0,254
542,50	0,241
545,00	0,228
547,50	0,214
550,00	0,201
552,50	0,192
555,00	0,181
557,50	0,167
560,00	0,156
562,50	0,146
565,00	0,136
567,50	0,127
570,00	0,117
572,50	0,110
575,00	0,103
577,50	0,096
580,00	0,090
582,50	0,085
585,00	0,079
587,50	0,074
590,00	0,070
592,50	0,065
595,00	0,060
597,50	0,058
600,00	0,055
602,50	0,050
605,00	0,048
607,50	0,046
610,00	0,045
612,50	0,039
615,00	0,038
617,50	0,037
620,00	0,034
622,50	0,032
625,00	0,032
627,50	0,032
630,00	0,029
632,50	0,028
635,00	0,027
637,50	0,024
640,00	0,023
642,50	0,022
645,00	0,023
647,50	0,022
650,00	0,020
652,50	0,019
655,00	0,019
657,50	0,018
660,00	0,017
662,50	0,015
665,00	0,015
667,50	0,016
670,00	0,015
672,50	0,017
675,00	0,016
677,50	0,013
680,00	0,013
682,50	0,013
685,00	0,013
687,50	0,013
690,00	0,014
692,50	0,012
695,00	0,010
697,50	0,010
700,00	0,011
702,50	0,008
705,00	0,010
707,50	0,014
710,00	0,008
712,50	0,008
715,00	0,009
717,50	0,010
720,00	0,009
722,50	0,008
725,00	0,007
727,50	0,006
730,00	0,006
732,50	0,008
735,00	0,006
737,50	0,005
740,00	0,005
742,50	0,005
745,00	0,010
747,50	0,011
750,00	0,007
752,50	0,008
755,00	0,011
757,50	0,009
760,00	0,007
762,50	0,009
765,00	0,008
767,50	0,004
770,00	0,001
772,50	0,005
775,00	0,008
777,50	0,006
780,00	0,003
782,50	0,000
785,00	0,002
787,50	0,009
790,00	0,006
792,50	0,003
795,00	0,008
797,50	0,007
800,00	0,007