File: Lambda max, Extincion max y Area/citrato/1.00/1.0.txt
"1mlsmoothing - Dataset 200757"
"Wavelength nm."	"Abs."
200,00	2,995
202,50	2,995
205,00	2,855
207,50	1,957
210,00	1,195
212,50	2,469
215,00	1,158
217,50	1,411
220,00	1,246
222,50	1,706
225,00	1,921
227,50	1,970
230,00	2,203
232,50	0,928
235,00	1,792
237,50	2,264
240,00	0,611
242,50	-0,022
245,00	0,131
247,50	0,938
250,00	0,509
252,50	1,657
255,00	2,131
257,50	1,082
260,00	1,035
262,50	0,981
265,00	2,394
267,50	2,551
270,00	0,517
272,50	0,424
275,00	1,337
277,50	0,928
280,00	0,046
282,50	0,124
285,00	0,164
287,50	0,219
290,00	0,212
292,50	0,207
295,00	0,217
297,50	0,236
300,00	0,235
302,50	0,230
305,00	0,228
307,50	0,226
310,00	0,223
312,50	0,221
315,00	0,218
317,50	0,216
320,00	0,213
322,50	0,211
325,00	0,209
327,50	0,208
330,00	0,206
332,50	0,204
335,00	0,203
337,50	0,202
340,00	0,201
342,50	0,201
345,00	0,200
347,50	0,200
350,00	0,199
352,50	0,198
355,00	0,197
357,50	0,197
360,00	0,196
362,50	0,195
365,00	0,194
367,50	0,193
370,00	0,192
372,50	0,191
375,00	0,190
377,50	0,189
380,00	0,188
382,50	0,187
385,00	0,185
387,50	0,184
390,00	0,183
392,50	0,182
395,00	0,181
397,50	0,180
400,00	0,179
402,50	0,178
405,00	0,177
407,50	0,176
410,00	0,175
412,50	0,175
415,00	0,174
417,50	0,174
420,00	0,173
422,50	0,173
425,00	0,173
427,50	0,172
430,00	0,172
432,50	0,172
435,00	0,172
437,50	0,173
440,00	0,173
442,50	0,173
445,00	0,174
447,50	0,174
450,00	0,175
452,50	0,176
455,00	0,177
457,50	0,178
460,00	0,180
462,50	0,182
465,00	0,184
467,50	0,186
470,00	0,189
472,50	0,192
475,00	0,196
477,50	0,199
480,00	0,204
482,50	0,209
485,00	0,215
487,50	0,221
490,00	0,229
492,50	0,237
495,00	0,245
497,50	0,254
500,00	0,263
502,50	0,272
505,00	0,280
507,50	0,288
510,00	0,295
512,50	0,301
515,00	0,305
517,50	0,307
520,00	0,307
522,50	0,305
525,00	0,302
527,50	0,296
530,00	0,288
532,50	0,280
535,00	0,269
537,50	0,258
540,00	0,246
542,50	0,232
545,00	0,219
547,50	0,206
550,00	0,193
552,50	0,181
555,00	0,169
557,50	0,157
560,00	0,146
562,50	0,136
565,00	0,126
567,50	0,116
570,00	0,108
572,50	0,100
575,00	0,093
577,50	0,086
580,00	0,080
582,50	0,075
585,00	0,070
587,50	0,065
590,00	0,060
592,50	0,056
595,00	0,052
597,50	0,048
600,00	0,045
602,50	0,042
605,00	0,039
607,50	0,037
610,00	0,034
612,50	0,032
615,00	0,030
617,50	0,028
620,00	0,027
622,50	0,025
625,00	0,023
627,50	0,022
630,00	0,021
632,50	0,020
635,00	0,018
637,50	0,017
640,00	0,016
642,50	0,015
645,00	0,014
647,50	0,013
650,00	0,012
652,50	0,012
655,00	0,011
657,50	0,010
660,00	0,009
662,50	0,009
665,00	0,008
667,50	0,008
670,00	0,008
672,50	0,008
675,00	0,007
677,50	0,006
680,00	0,006
682,50	0,006
685,00	0,005
687,50	0,005
690,00	0,005
692,50	0,004
695,00	0,004
697,50	0,004
700,00	0,004
702,50	0,004
705,00	0,003
707,50	0,003
710,00	0,003
712,50	0,003
715,00	0,002
717,50	0,002
720,00	0,002
722,50	0,002
725,00	0,002
727,50	0,002
730,00	0,002
732,50	0,001
735,00	0,001
737,50	0,001
740,00	0,001
742,50	0,001
745,00	0,001
747,50	0,001
750,00	0,000
752,50	0,000
755,00	0,000
757,50	0,000
760,00	0,000
762,50	0,000
765,00	0,000
767,50	-0,000
770,00	-0,000
772,50	-0,000
775,00	-0,000
777,50	-0,001
780,00	-0,000
782,50	-0,000
785,00	-0,000
787,50	0,000
790,00	0,000
792,50	-0,000
795,00	-0,000
797,50	-0,000
800,00	-0,000