File: Espectro Uv-Vis/citrato/1.40/1.40.txt
"1.4 - Dataset 200355"
"Wavelength nm."	"Abs."
200,00	0.596
202,50	0.547
205,00	0.515
207,50	0.487
210,00	0.468
212,50	0.447
215,00	0.426
217,50	0.408
220,00	0.391
222,50	0.375
225,00	0.364
227,50	0.354
230,00	0.346
232,50	0.339
235,00	0.334
237,50	0.332
240,00	0.328
242,50	0.325
245,00	0.324
247,50	0.321
250,00	0.318
252,50	0.316
255,00	0.313
257,50	0.309
260,00	0.306
262,50	0.301
265,00	0.296
267,50	0.291
270,00	0.284
272,50	0.279
275,00	0.272
277,50	0.267
280,00	0.261
282,50	0.255
285,00	0.249
287,50	0.245
290,00	0.241
292,50	0.233
295,00	0.231
297,50	0.225
300,00	0.224
302,50	0.218
305,00	0.214
307,50	0.21
310,00	0.208
312,50	0.205
315,00	0.201
317,50	0.199
320,00	0.196
322,50	0.196
325,00	0.193
327,50	0.191
330,00	0.19
332,50	0.189
335,00	0.186
337,50	0.185
340,00	0.185
342,50	0.184
345,00	0.183
347,50	0.182
350,00	0.182
352,50	0.181
355,00	0.18
357,50	0.179
360,00	0.178
362,50	0.177
365,00	0.176
367,50	0.176
370,00	0.174
372,50	0.172
375,00	0.172
377,50	0.172
380,00	0.17
382,50	0.169
385,00	0.168
387,50	0.167
390,00	0.165
392,50	0.165
395,00	0.164
397,50	0.163
400,00	0.163
402,50	0.162
405,00	0.161
407,50	0.16
410,00	0.16
412,50	0.159
415,00	0.159
417,50	0.158
420,00	0.158
422,50	0.157
425,00	0.157
427,50	0.156
430,00	0.155
432,50	0.156
435,00	0.156
437,50	0.156
440,00	0.157
442,50	0.156
445,00	0.156
447,50	0.158
450,00	0.158
452,50	0.159
455,00	0.159
457,50	0.161
460,00	0.162
462,50	0.164
465,00	0.166
467,50	0.168
470,00	0.17
472,50	0.172
475,00	0.176
477,50	0.179
480,00	0.183
482,50	0.187
485,00	0.191
487,50	0.196
490,00	0.202
492,50	0.208
495,00	0.215
497,50	0.222
500,00	0.229
502,50	0.234
505,00	0.241
507,50	0.247
510,00	0.252
512,50	0.256
515,00	0.259
517,50	0.26
520,00	0.26
522,50	0.258
525,00	0.254
527,50	0.249
530,00	0.242
532,50	0.235
535,00	0.225
537,50	0.215
540,00	0.204
542,50	0.192
545,00	0.181
547,50	0.17
550,00	0.158
552,50	0.148
555,00	0.138
557,50	0.128
560,00	0.119
562,50	0.11
565,00	0.102
567,50	0.095
570,00	0.087
572,50	0.082
575,00	0.075
577,50	0.07
580,00	0.064
582,50	0.06
585,00	0.056
587,50	0.052
590,00	0.048
592,50	0.045
595,00	0.042
597,50	0.039
600,00	0.037
602,50	0.034
605,00	0.032
607,50	0.03
610,00	0.028
612,50	0.026
615,00	0.024
617,50	0.022
620,00	0.021
622,50	0.02
625,00	0.018
627,50	0.017
630,00	0.016
632,50	0.015
635,00	0.014
637,50	0.013
640,00	0.012
642,50	0.012
645,00	0.011
647,50	0.01
650,00	0.01
652,50	0.009
655,00	0.008
657,50	0.008
660,00	0.008
662,50	0.007
665,00	0.007
667,50	0.006
670,00	0.006
672,50	0.005
675,00	0.004
677,50	0.004
680,00	0.003
682,50	0.003
685,00	0.003
687,50	0.003
690,00	0.002
692,50	0.002
695,00	0.002
697,50	0.002
700,00	0.002
702,50	0.002
705,00	0.002
707,50	0.002
710,00	0.002
712,50	0.001
715,00	0.001
717,50	0.001
720,00	0.001
722,50	0.001
725,00	0.001
727,50	0
730,00	0
732,50	0
735,00	0
737,50	0
740,00	-0.001
742,50	0
745,00	-0.001
747,50	-0.001
750,00	0
752,50	-0.001
755,00	-0.001
757,50	-0.001
760,00	-0.001
762,50	-0.001
765,00	-0.001
767,50	-0.001
770,00	-0.001
772,50	-0.001
775,00	-0.001
777,50	0
780,00	0
782,50	-0.001
785,00	-0.001
787,50	-0.001
790,00	-0.002
792,50	-0.001
795,00	-0.002
797,50	-0.002
800,00	-0.002