File: Espectro Uv-Vis/citrato/1.40/1.41.txt
"1.4 - Dataset 194041"
"Wavelength nm."	"Abs."
200,00	3,360
202,50	3,360
205,00	3,472
207,50	3,388
210,00	1,513
212,50	2,801
215,00	4,172
217,50	2,684
220,00	1,850
222,50	0,411
225,00	-0,104
227,50	1,362
230,00	2,509
232,50	1,908
235,00	0,645
237,50	0,057
240,00	1,472
242,50	0,850
245,00	0,283
247,50	1,869
250,00	1,615
252,50	0,800
255,00	0,780
257,50	0,816
260,00	0,255
262,50	2,215
265,00	1,605
267,50	-0,436
270,00	1,384
272,50	1,001
275,00	0,429
277,50	1,119
280,00	0,549
282,50	0,145
285,00	0,267
287,50	0,259
290,00	0,284
292,50	0,273
295,00	0,249
297,50	0,261
300,00	0,265
302,50	0,262
305,00	0,259
307,50	0,256
310,00	0,254
312,50	0,251
315,00	0,249
317,50	0,245
320,00	0,243
322,50	0,241
325,00	0,238
327,50	0,237
330,00	0,235
332,50	0,234
335,00	0,232
337,50	0,231
340,00	0,230
342,50	0,229
345,00	0,228
347,50	0,227
350,00	0,226
352,50	0,226
355,00	0,225
357,50	0,224
360,00	0,223
362,50	0,222
365,00	0,220
367,50	0,219
370,00	0,218
372,50	0,217
375,00	0,216
377,50	0,215
380,00	0,213
382,50	0,212
385,00	0,211
387,50	0,209
390,00	0,208
392,50	0,207
395,00	0,206
397,50	0,204
400,00	0,203
402,50	0,202
405,00	0,201
407,50	0,201
410,00	0,200
412,50	0,199
415,00	0,199
417,50	0,198
420,00	0,198
422,50	0,197
425,00	0,197
427,50	0,196
430,00	0,196
432,50	0,196
435,00	0,196
437,50	0,196
440,00	0,196
442,50	0,197
445,00	0,197
447,50	0,198
450,00	0,198
452,50	0,199
455,00	0,200
457,50	0,202
460,00	0,203
462,50	0,205
465,00	0,207
467,50	0,209
470,00	0,212
472,50	0,215
475,00	0,218
477,50	0,222
480,00	0,226
482,50	0,231
485,00	0,237
487,50	0,243
490,00	0,250
492,50	0,258
495,00	0,266
497,50	0,274
500,00	0,282
502,50	0,290
505,00	0,298
507,50	0,305
510,00	0,311
512,50	0,316
515,00	0,319
517,50	0,321
520,00	0,321
522,50	0,318
525,00	0,314
527,50	0,307
530,00	0,300
532,50	0,290
535,00	0,280
537,50	0,268
540,00	0,255
542,50	0,242
545,00	0,229
547,50	0,216
550,00	0,203
552,50	0,191
555,00	0,179
557,50	0,168
560,00	0,158
562,50	0,148
565,00	0,139
567,50	0,130
570,00	0,122
572,50	0,115
575,00	0,109
577,50	0,103
580,00	0,098
582,50	0,093
585,00	0,088
587,50	0,083
590,00	0,079
592,50	0,075
595,00	0,072
597,50	0,069
600,00	0,066
602,50	0,063
605,00	0,061
607,50	0,058
610,00	0,056
612,50	0,054
615,00	0,052
617,50	0,050
620,00	0,049
622,50	0,047
625,00	0,046
627,50	0,045
630,00	0,043
632,50	0,042
635,00	0,041
637,50	0,040
640,00	0,039
642,50	0,038
645,00	0,037
647,50	0,036
650,00	0,035
652,50	0,034
655,00	0,034
657,50	0,033
660,00	0,033
662,50	0,032
665,00	0,031
667,50	0,031
670,00	0,030
672,50	0,030
675,00	0,029
677,50	0,029
680,00	0,028
682,50	0,028
685,00	0,027
687,50	0,027
690,00	0,027
692,50	0,027
695,00	0,026
697,50	0,026
700,00	0,026
702,50	0,025
705,00	0,025
707,50	0,025
710,00	0,024
712,50	0,024
715,00	0,024
717,50	0,023
720,00	0,023
722,50	0,023
725,00	0,023
727,50	0,023
730,00	0,023
732,50	0,022
735,00	0,022
737,50	0,022
740,00	0,022
742,50	0,022
745,00	0,021
747,50	0,021
750,00	0,021
752,50	0,021
755,00	0,021
757,50	0,021
760,00	0,021
762,50	0,021
765,00	0,021
767,50	0,021
770,00	0,020
772,50	0,020
775,00	0,020
777,50	0,019
780,00	0,020
782,50	0,020
785,00	0,020
787,50	0,020
790,00	0,020
792,50	0,020
795,00	0,019
797,50	0,019
800,00	0,019