File: Espectro Uv-Vis/oro/4/4.43e-4.txt
"4.43e-4 - Dataset 212731"
"Wavelength nm."	"Abs."
200,00	3,501
202,50	3,501
205,00	3,167
207,50	2,503
210,00	2,652
212,50	1,093
215,00	2,013
217,50	4,298
220,00	2,287
222,50	2,184
225,00	3,319
227,50	2,909
230,00	3,148
232,50	3,242
235,00	2,632
237,50	2,994
240,00	3,822
242,50	3,068
245,00	2,356
247,50	1,979
250,00	3,699
252,50	2,798
255,00	0,513
257,50	3,375
260,00	4,671
262,50	3,051
265,00	2,369
267,50	2,910
270,00	2,274
272,50	1,327
275,00	1,937
277,50	3,164
280,00	1,915
282,50	0,679
285,00	0,521
287,50	0,517
290,00	0,510
292,50	0,505
295,00	0,496
297,50	0,484
300,00	0,475
302,50	0,466
305,00	0,460
307,50	0,453
310,00	0,447
312,50	0,440
315,00	0,433
317,50	0,427
320,00	0,421
322,50	0,415
325,00	0,410
327,50	0,405
330,00	0,400
332,50	0,396
335,00	0,392
337,50	0,389
340,00	0,385
342,50	0,383
345,00	0,381
347,50	0,380
350,00	0,378
352,50	0,378
355,00	0,377
357,50	0,376
360,00	0,375
362,50	0,374
365,00	0,373
367,50	0,372
370,00	0,370
372,50	0,368
375,00	0,366
377,50	0,364
380,00	0,362
382,50	0,360
385,00	0,358
387,50	0,355
390,00	0,353
392,50	0,351
395,00	0,348
397,50	0,346
400,00	0,344
402,50	0,342
405,00	0,340
407,50	0,338
410,00	0,336
412,50	0,334
415,00	0,333
417,50	0,332
420,00	0,330
422,50	0,329
425,00	0,328
427,50	0,327
430,00	0,325
432,50	0,325
435,00	0,324
437,50	0,323
440,00	0,323
442,50	0,322
445,00	0,322
447,50	0,322
450,00	0,322
452,50	0,322
455,00	0,323
457,50	0,324
460,00	0,325
462,50	0,327
465,00	0,329
467,50	0,331
470,00	0,334
472,50	0,338
475,00	0,342
477,50	0,347
480,00	0,353
482,50	0,360
485,00	0,369
487,50	0,379
490,00	0,391
492,50	0,404
495,00	0,419
497,50	0,436
500,00	0,453
502,50	0,472
505,00	0,490
507,50	0,508
510,00	0,525
512,50	0,542
515,00	0,557
517,50	0,569
520,00	0,578
522,50	0,584
525,00	0,588
527,50	0,589
530,00	0,588
532,50	0,584
535,00	0,578
537,50	0,570
540,00	0,561
542,50	0,549
545,00	0,536
547,50	0,522
550,00	0,506
552,50	0,490
555,00	0,473
557,50	0,455
560,00	0,437
562,50	0,418
565,00	0,399
567,50	0,381
570,00	0,362
572,50	0,345
575,00	0,328
577,50	0,312
580,00	0,296
582,50	0,281
585,00	0,266
587,50	0,252
590,00	0,238
592,50	0,226
595,00	0,214
597,50	0,203
600,00	0,192
602,50	0,183
605,00	0,174
607,50	0,165
610,00	0,157
612,50	0,149
615,00	0,142
617,50	0,136
620,00	0,129
622,50	0,124
625,00	0,118
627,50	0,113
630,00	0,108
632,50	0,104
635,00	0,100
637,50	0,095
640,00	0,092
642,50	0,088
645,00	0,085
647,50	0,082
650,00	0,079
652,50	0,076
655,00	0,074
657,50	0,071
660,00	0,069
662,50	0,067
665,00	0,065
667,50	0,063
670,00	0,062
672,50	0,060
675,00	0,058
677,50	0,057
680,00	0,055
682,50	0,054
685,00	0,052
687,50	0,051
690,00	0,050
692,50	0,049
695,00	0,048
697,50	0,047
700,00	0,046
702,50	0,045
705,00	0,044
707,50	0,043
710,00	0,042
712,50	0,041
715,00	0,041
717,50	0,040
720,00	0,039
722,50	0,039
725,00	0,038
727,50	0,037
730,00	0,037
732,50	0,036
735,00	0,036
737,50	0,035
740,00	0,034
742,50	0,034
745,00	0,034
747,50	0,033
750,00	0,033
752,50	0,032
755,00	0,032
757,50	0,031
760,00	0,031
762,50	0,031
765,00	0,030
767,50	0,030
770,00	0,030
772,50	0,029
775,00	0,028
777,50	0,028
780,00	0,028
782,50	0,028
785,00	0,028
787,50	0,028
790,00	0,028
792,50	0,028
795,00	0,027
797,50	0,027
800,00	0,027