File: Espectro Uv-Vis/oro/4/4.4e-4.txt
"4.4e-4 - Dataset 225325"
"Wavelength nm."	"Abs."
200,00	0,625
202,50	0,625
205,00	0,622
207,50	0,617
210,00	0,614
212,50	0,611
215,00	0,608
217,50	0,604
220,00	0,600
222,50	0,597
225,00	0,594
227,50	0,591
230,00	0,589
232,50	0,588
235,00	0,586
237,50	0,586
240,00	0,586
242,50	0,586
245,00	0,587
247,50	0,588
250,00	0,588
252,50	0,588
255,00	0,586
257,50	0,583
260,00	0,579
262,50	0,574
265,00	0,567
267,50	0,560
270,00	0,551
272,50	0,541
275,00	0,531
277,50	0,520
280,00	0,510
282,50	0,501
285,00	0,491
287,50	0,483
290,00	0,466
292,50	0,450
295,00	0,450
297,50	0,444
300,00	0,434
302,50	0,441
305,00	0,431
307,50	0,426
310,00	0,424
312,50	0,414
315,00	0,404
317,50	0,397
320,00	0,390
322,50	0,379
325,00	0,375
327,50	0,373
330,00	0,375
332,50	0,360
335,00	0,361
337,50	0,364
340,00	0,358
342,50	0,353
345,00	0,348
347,50	0,350
350,00	0,348
352,50	0,347
355,00	0,348
357,50	0,345
360,00	0,347
362,50	0,345
365,00	0,343
367,50	0,344
370,00	0,341
372,50	0,338
375,00	0,339
377,50	0,337
380,00	0,333
382,50	0,327
385,00	0,325
387,50	0,327
390,00	0,327
392,50	0,325
395,00	0,322
397,50	0,321
400,00	0,321
402,50	0,318
405,00	0,316
407,50	0,313
410,00	0,310
412,50	0,308
415,00	0,308
417,50	0,306
420,00	0,305
422,50	0,304
425,00	0,301
427,50	0,299
430,00	0,302
432,50	0,301
435,00	0,297
437,50	0,296
440,00	0,298
442,50	0,299
445,00	0,299
447,50	0,299
450,00	0,299
452,50	0,299
455,00	0,299
457,50	0,298
460,00	0,299
462,50	0,301
465,00	0,302
467,50	0,305
470,00	0,309
472,50	0,312
475,00	0,317
477,50	0,322
480,00	0,328
482,50	0,335
485,00	0,342
487,50	0,351
490,00	0,362
492,50	0,376
495,00	0,390
497,50	0,404
500,00	0,419
502,50	0,437
505,00	0,454
507,50	0,472
510,00	0,489
512,50	0,505
515,00	0,517
517,50	0,527
520,00	0,535
522,50	0,541
525,00	0,542
527,50	0,543
530,00	0,542
532,50	0,536
535,00	0,532
537,50	0,526
540,00	0,517
542,50	0,505
545,00	0,493
547,50	0,480
550,00	0,469
552,50	0,453
555,00	0,437
557,50	0,423
560,00	0,406
562,50	0,389
565,00	0,372
567,50	0,356
570,00	0,341
572,50	0,325
575,00	0,309
577,50	0,296
580,00	0,283
582,50	0,269
585,00	0,256
587,50	0,244
590,00	0,233
592,50	0,223
595,00	0,212
597,50	0,199
600,00	0,190
602,50	0,181
605,00	0,174
607,50	0,167
610,00	0,159
612,50	0,151
615,00	0,142
617,50	0,135
620,00	0,130
622,50	0,126
625,00	0,121
627,50	0,115
630,00	0,111
632,50	0,108
635,00	0,100
637,50	0,095
640,00	0,093
642,50	0,089
645,00	0,086
647,50	0,082
650,00	0,078
652,50	0,076
655,00	0,074
657,50	0,071
660,00	0,069
662,50	0,067
665,00	0,064
667,50	0,063
670,00	0,062
672,50	0,059
675,00	0,056
677,50	0,053
680,00	0,053
682,50	0,050
685,00	0,047
687,50	0,048
690,00	0,045
692,50	0,045
695,00	0,044
697,50	0,041
700,00	0,040
702,50	0,041
705,00	0,040
707,50	0,039
710,00	0,038
712,50	0,038
715,00	0,036
717,50	0,034
720,00	0,035
722,50	0,035
725,00	0,031
727,50	0,032
730,00	0,037
732,50	0,034
735,00	0,032
737,50	0,030
740,00	0,029
742,50	0,029
745,00	0,024
747,50	0,026
750,00	0,029
752,50	0,026
755,00	0,025
757,50	0,024
760,00	0,022
762,50	0,021
765,00	0,025
767,50	0,022
770,00	0,023
772,50	0,023
775,00	0,019
777,50	0,020
780,00	0,025
782,50	0,022
785,00	0,021
787,50	0,020
790,00	0,019
792,50	0,021
795,00	0,017
797,50	0,018
800,00	0,018