File: Espectro Uv-Vis/oro/7/2.5e-4.txt
"2.5e-4 - Dataset 224745"
"Wavelength nm."	"Abs."
200,00	4,772
202,50	4,772
205,00	4,363
207,50	1,919
210,00	2,299
212,50	2,718
215,00	2,537
217,50	2,883
220,00	1,884
222,50	1,715
225,00	2,514
227,50	1,841
230,00	1,725
232,50	1,741
235,00	0,816
237,50	0,211
240,00	1,449
242,50	2,377
245,00	1,475
247,50	1,154
250,00	0,597
252,50	0,096
255,00	0,637
257,50	2,046
260,00	1,712
262,50	0,407
265,00	1,178
267,50	0,821
270,00	0,211
272,50	1,260
275,00	0,118
277,50	-0,424
280,00	0,250
282,50	0,336
285,00	0,287
287,50	0,226
290,00	1,832
292,50	3,269
295,00	0,948
297,50	0,144
300,00	0,287
302,50	0,293
305,00	0,291
307,50	0,265
310,00	0,274
312,50	0,284
315,00	0,274
317,50	0,256
320,00	0,249
322,50	0,253
325,00	0,257
327,50	0,247
330,00	0,247
332,50	0,249
335,00	0,243
337,50	0,236
340,00	0,237
342,50	0,236
345,00	0,240
347,50	0,240
350,00	0,238
352,50	0,237
355,00	0,238
357,50	0,235
360,00	0,234
362,50	0,233
365,00	0,232
367,50	0,230
370,00	0,230
372,50	0,228
375,00	0,225
377,50	0,222
380,00	0,220
382,50	0,218
385,00	0,221
387,50	0,220
390,00	0,216
392,50	0,214
395,00	0,213
397,50	0,214
400,00	0,210
402,50	0,207
405,00	0,209
407,50	0,211
410,00	0,211
412,50	0,207
415,00	0,206
417,50	0,205
420,00	0,207
422,50	0,206
425,00	0,202
427,50	0,204
430,00	0,204
432,50	0,204
435,00	0,204
437,50	0,204
440,00	0,204
442,50	0,202
445,00	0,203
447,50	0,205
450,00	0,206
452,50	0,207
455,00	0,209
457,50	0,208
460,00	0,210
462,50	0,215
465,00	0,215
467,50	0,219
470,00	0,223
472,50	0,225
475,00	0,229
477,50	0,233
480,00	0,239
482,50	0,244
485,00	0,251
487,50	0,259
490,00	0,265
492,50	0,275
495,00	0,286
497,50	0,294
500,00	0,303
502,50	0,313
505,00	0,324
507,50	0,332
510,00	0,335
512,50	0,341
515,00	0,345
517,50	0,346
520,00	0,343
522,50	0,337
525,00	0,333
527,50	0,325
530,00	0,314
532,50	0,301
535,00	0,287
537,50	0,274
540,00	0,258
542,50	0,241
545,00	0,227
547,50	0,213
550,00	0,197
552,50	0,181
555,00	0,170
557,50	0,160
560,00	0,147
562,50	0,137
565,00	0,128
567,50	0,118
570,00	0,110
572,50	0,102
575,00	0,096
577,50	0,090
580,00	0,083
582,50	0,078
585,00	0,074
587,50	0,069
590,00	0,065
592,50	0,061
595,00	0,057
597,50	0,054
600,00	0,051
602,50	0,048
605,00	0,044
607,50	0,042
610,00	0,040
612,50	0,037
615,00	0,036
617,50	0,035
620,00	0,033
622,50	0,031
625,00	0,031
627,50	0,030
630,00	0,027
632,50	0,026
635,00	0,026
637,50	0,024
640,00	0,022
642,50	0,020
645,00	0,021
647,50	0,020
650,00	0,020
652,50	0,020
655,00	0,019
657,50	0,019
660,00	0,018
662,50	0,018
665,00	0,016
667,50	0,014
670,00	0,016
672,50	0,016
675,00	0,017
677,50	0,015
680,00	0,013
682,50	0,015
685,00	0,014
687,50	0,011
690,00	0,009
692,50	0,010
695,00	0,012
697,50	0,008
700,00	0,008
702,50	0,012
705,00	0,013
707,50	0,012
710,00	0,010
712,50	0,009
715,00	0,010
717,50	0,009
720,00	0,010
722,50	0,011
725,00	0,008
727,50	0,009
730,00	0,010
732,50	0,008
735,00	0,008
737,50	0,011
740,00	0,009
742,50	0,007
745,00	0,008
747,50	0,006
750,00	0,004
752,50	0,007
755,00	0,005
757,50	0,007
760,00	0,005
762,50	0,001
765,00	0,004
767,50	0,004
770,00	0,007
772,50	0,011
775,00	0,010
777,50	0,007
780,00	0,009
782,50	0,010
785,00	0,011
787,50	0,010
790,00	0,007
792,50	0,005
795,00	0,001
797,50	0,001
800,00	0,001