File: Espectro Uv-Vis/oro/7/2.74e-4.txt
"2.74e-4 - Dataset 211033"
"Wavelength nm."	"Abs."
200,00	4,130
202,50	4,130
205,00	3,758
207,50	2,458
210,00	2,979
212,50	3,162
215,00	2,204
217,50	3,179
220,00	2,138
222,50	2,021
225,00	2,669
227,50	3,397
230,00	3,150
232,50	1,801
235,00	-0,525
237,50	1,225
240,00	4,881
242,50	2,573
245,00	1,072
247,50	3,019
250,00	0,542
252,50	1,384
255,00	4,078
257,50	3,275
260,00	1,106
262,50	3,106
265,00	3,362
267,50	3,055
270,00	3,515
272,50	1,952
275,00	2,398
277,50	1,205
280,00	0,433
282,50	0,351
285,00	0,240
287,50	0,323
290,00	0,319
292,50	0,312
295,00	0,305
297,50	0,303
300,00	0,297
302,50	0,292
305,00	0,291
307,50	0,287
310,00	0,282
312,50	0,279
315,00	0,276
317,50	0,273
320,00	0,269
322,50	0,267
325,00	0,264
327,50	0,262
330,00	0,259
332,50	0,258
335,00	0,256
337,50	0,255
340,00	0,253
342,50	0,252
345,00	0,251
347,50	0,250
350,00	0,249
352,50	0,249
355,00	0,248
357,50	0,247
360,00	0,246
362,50	0,246
365,00	0,245
367,50	0,244
370,00	0,242
372,50	0,241
375,00	0,240
377,50	0,238
380,00	0,237
382,50	0,236
385,00	0,234
387,50	0,233
390,00	0,231
392,50	0,230
395,00	0,229
397,50	0,227
400,00	0,226
402,50	0,225
405,00	0,224
407,50	0,223
410,00	0,222
412,50	0,221
415,00	0,220
417,50	0,219
420,00	0,219
422,50	0,218
425,00	0,217
427,50	0,217
430,00	0,217
432,50	0,217
435,00	0,216
437,50	0,216
440,00	0,216
442,50	0,216
445,00	0,217
447,50	0,217
450,00	0,218
452,50	0,218
455,00	0,219
457,50	0,220
460,00	0,222
462,50	0,223
465,00	0,225
467,50	0,227
470,00	0,230
472,50	0,233
475,00	0,236
477,50	0,240
480,00	0,244
482,50	0,250
485,00	0,256
487,50	0,262
490,00	0,270
492,50	0,278
495,00	0,287
497,50	0,296
500,00	0,306
502,50	0,315
505,00	0,324
507,50	0,333
510,00	0,340
512,50	0,347
515,00	0,352
517,50	0,356
520,00	0,357
522,50	0,356
525,00	0,353
527,50	0,349
530,00	0,342
532,50	0,335
535,00	0,325
537,50	0,315
540,00	0,303
542,50	0,291
545,00	0,279
547,50	0,266
550,00	0,253
552,50	0,241
555,00	0,229
557,50	0,217
560,00	0,205
562,50	0,194
565,00	0,184
567,50	0,174
570,00	0,164
572,50	0,156
575,00	0,148
577,50	0,140
580,00	0,133
582,50	0,127
585,00	0,120
587,50	0,114
590,00	0,109
592,50	0,103
595,00	0,099
597,50	0,094
600,00	0,090
602,50	0,086
605,00	0,083
607,50	0,079
610,00	0,076
612,50	0,073
615,00	0,070
617,50	0,068
620,00	0,065
622,50	0,063
625,00	0,061
627,50	0,059
630,00	0,057
632,50	0,055
635,00	0,054
637,50	0,052
640,00	0,050
642,50	0,049
645,00	0,048
647,50	0,046
650,00	0,045
652,50	0,044
655,00	0,043
657,50	0,042
660,00	0,041
662,50	0,040
665,00	0,039
667,50	0,039
670,00	0,038
672,50	0,037
675,00	0,037
677,50	0,036
680,00	0,036
682,50	0,035
685,00	0,034
687,50	0,034
690,00	0,033
692,50	0,033
695,00	0,032
697,50	0,032
700,00	0,032
702,50	0,031
705,00	0,031
707,50	0,030
710,00	0,030
712,50	0,030
715,00	0,029
717,50	0,029
720,00	0,029
722,50	0,028
725,00	0,028
727,50	0,028
730,00	0,027
732,50	0,027
735,00	0,027
737,50	0,027
740,00	0,026
742,50	0,026
745,00	0,026
747,50	0,026
750,00	0,025
752,50	0,025
755,00	0,025
757,50	0,025
760,00	0,024
762,50	0,024
765,00	0,024
767,50	0,024
770,00	0,024
772,50	0,023
775,00	0,022
777,50	0,022
780,00	0,022
782,50	0,022
785,00	0,022
787,50	0,022
790,00	0,022
792,50	0,022
795,00	0,022
797,50	0,022
800,00	0,022