File: Espectro Uv-Vis/oro/7/2.8e-4.txt
"2.8e-4 - Dataset 223848"
"Wavelength nm."	"Abs."
200,00	0,876
202,50	0,876
205,00	1,199
207,50	1,564
210,00	1,505
212,50	1,539
215,00	0,872
217,50	0,332
220,00	0,825
222,50	2,260
225,00	1,272
227,50	0,324
230,00	2,949
232,50	2,510
235,00	0,492
237,50	1,001
240,00	0,485
242,50	2,123
245,00	2,032
247,50	0,519
250,00	1,099
252,50	0,734
255,00	0,039
257,50	0,185
260,00	1,660
262,50	1,858
265,00	1,387
267,50	1,881
270,00	1,800
272,50	1,795
275,00	1,306
277,50	0,273
280,00	0,281
282,50	0,251
285,00	0,318
287,50	0,316
290,00	0,240
292,50	0,253
295,00	0,334
297,50	0,276
300,00	0,272
302,50	0,257
305,00	0,257
307,50	0,256
310,00	0,244
312,50	0,240
315,00	0,247
317,50	0,244
320,00	0,232
322,50	0,239
325,00	0,242
327,50	0,231
330,00	0,228
332,50	0,227
335,00	0,228
337,50	0,226
340,00	0,223
342,50	0,227
345,00	0,220
347,50	0,218
350,00	0,224
352,50	0,222
355,00	0,216
357,50	0,214
360,00	0,213
362,50	0,210
365,00	0,209
367,50	0,209
370,00	0,207
372,50	0,204
375,00	0,204
377,50	0,203
380,00	0,203
382,50	0,203
385,00	0,200
387,50	0,199
390,00	0,199
392,50	0,201
395,00	0,197
397,50	0,194
400,00	0,192
402,50	0,189
405,00	0,190
407,50	0,188
410,00	0,188
412,50	0,189
415,00	0,188
417,50	0,188
420,00	0,188
422,50	0,186
425,00	0,187
427,50	0,188
430,00	0,185
432,50	0,182
435,00	0,184
437,50	0,185
440,00	0,184
442,50	0,184
445,00	0,182
447,50	0,184
450,00	0,185
452,50	0,185
455,00	0,185
457,50	0,186
460,00	0,185
462,50	0,188
465,00	0,192
467,50	0,192
470,00	0,195
472,50	0,196
475,00	0,199
477,50	0,203
480,00	0,206
482,50	0,212
485,00	0,216
487,50	0,221
490,00	0,227
492,50	0,232
495,00	0,240
497,50	0,249
500,00	0,255
502,50	0,261
505,00	0,270
507,50	0,277
510,00	0,282
512,50	0,288
515,00	0,293
517,50	0,293
520,00	0,292
522,50	0,294
525,00	0,292
527,50	0,286
530,00	0,280
532,50	0,273
535,00	0,263
537,50	0,251
540,00	0,241
542,50	0,230
545,00	0,219
547,50	0,207
550,00	0,194
552,50	0,184
555,00	0,173
557,50	0,161
560,00	0,151
562,50	0,142
565,00	0,134
567,50	0,126
570,00	0,119
572,50	0,115
575,00	0,108
577,50	0,101
580,00	0,096
582,50	0,091
585,00	0,086
587,50	0,079
590,00	0,076
592,50	0,075
595,00	0,071
597,50	0,068
600,00	0,064
602,50	0,060
605,00	0,058
607,50	0,058
610,00	0,056
612,50	0,054
615,00	0,052
617,50	0,049
620,00	0,048
622,50	0,047
625,00	0,045
627,50	0,043
630,00	0,043
632,50	0,043
635,00	0,041
637,50	0,039
640,00	0,038
642,50	0,038
645,00	0,037
647,50	0,034
650,00	0,034
652,50	0,032
655,00	0,032
657,50	0,034
660,00	0,031
662,50	0,030
665,00	0,031
667,50	0,030
670,00	0,029
672,50	0,029
675,00	0,029
677,50	0,027
680,00	0,027
682,50	0,027
685,00	0,027
687,50	0,026
690,00	0,025
692,50	0,025
695,00	0,027
697,50	0,026
700,00	0,023
702,50	0,022
705,00	0,026
707,50	0,024
710,00	0,021
712,50	0,023
715,00	0,022
717,50	0,022
720,00	0,026
722,50	0,023
725,00	0,021
727,50	0,024
730,00	0,021
732,50	0,020
735,00	0,022
737,50	0,018
740,00	0,018
742,50	0,023
745,00	0,020
747,50	0,017
750,00	0,019
752,50	0,019
755,00	0,018
757,50	0,021
760,00	0,020
762,50	0,017
765,00	0,017
767,50	0,017
770,00	0,017
772,50	0,019
775,00	0,021
777,50	0,017
780,00	0,017
782,50	0,016
785,00	0,015
787,50	0,019
790,00	0,018
792,50	0,013
795,00	0,020
797,50	0,019
800,00	0,019