File: Lambda max, Extincion max y Area/citrato/0.80/0.80.txt
"0.8 - Dataset 195425"
"Wavelength nm."	"Abs."
200,00	0,381
202,50	0,381
205,00	0,377
207,50	0,369
210,00	0,364
212,50	0,358
215,00	0,353
217,50	0,347
220,00	0,342
222,50	0,338
225,00	0,333
227,50	0,329
230,00	0,326
232,50	0,323
235,00	0,320
237,50	0,318
240,00	0,317
242,50	0,315
245,00	0,314
247,50	0,312
250,00	0,310
252,50	0,309
255,00	0,307
257,50	0,304
260,00	0,301
262,50	0,296
265,00	0,292
267,50	0,287
270,00	0,282
272,50	0,276
275,00	0,270
277,50	0,264
280,00	0,258
282,50	0,252
285,00	0,247
287,50	0,242
290,00	0,237
292,50	0,232
295,00	0,227
297,50	0,222
300,00	0,218
302,50	0,214
305,00	0,210
307,50	0,207
310,00	0,203
312,50	0,200
315,00	0,197
317,50	0,194
320,00	0,191
322,50	0,189
325,00	0,187
327,50	0,184
330,00	0,182
332,50	0,181
335,00	0,179
337,50	0,177
340,00	0,176
342,50	0,176
345,00	0,175
347,50	0,174
350,00	0,173
352,50	0,173
355,00	0,173
357,50	0,173
360,00	0,172
362,50	0,171
365,00	0,170
367,50	0,170
370,00	0,169
372,50	0,168
375,00	0,167
377,50	0,166
380,00	0,165
382,50	0,164
385,00	0,163
387,50	0,162
390,00	0,161
392,50	0,160
395,00	0,159
397,50	0,158
400,00	0,157
402,50	0,157
405,00	0,156
407,50	0,155
410,00	0,154
412,50	0,154
415,00	0,153
417,50	0,152
420,00	0,152
422,50	0,151
425,00	0,151
427,50	0,150
430,00	0,150
432,50	0,150
435,00	0,150
437,50	0,149
440,00	0,150
442,50	0,150
445,00	0,150
447,50	0,150
450,00	0,150
452,50	0,151
455,00	0,151
457,50	0,152
460,00	0,154
462,50	0,155
465,00	0,156
467,50	0,158
470,00	0,160
472,50	0,162
475,00	0,165
477,50	0,168
480,00	0,172
482,50	0,176
485,00	0,180
487,50	0,186
490,00	0,192
492,50	0,199
495,00	0,206
497,50	0,214
500,00	0,222
502,50	0,230
505,00	0,238
507,50	0,246
510,00	0,253
512,50	0,259
515,00	0,264
517,50	0,267
520,00	0,269
522,50	0,270
525,00	0,269
527,50	0,267
530,00	0,264
532,50	0,260
535,00	0,254
537,50	0,248
540,00	0,241
542,50	0,232
545,00	0,224
547,50	0,215
550,00	0,206
552,50	0,197
555,00	0,188
557,50	0,179
560,00	0,170
562,50	0,161
565,00	0,152
567,50	0,144
570,00	0,136
572,50	0,128
575,00	0,120
577,50	0,113
580,00	0,106
582,50	0,099
585,00	0,094
587,50	0,088
590,00	0,082
592,50	0,077
595,00	0,072
597,50	0,068
600,00	0,063
602,50	0,060
605,00	0,056
607,50	0,052
610,00	0,049
612,50	0,046
615,00	0,043
617,50	0,040
620,00	0,038
622,50	0,035
625,00	0,033
627,50	0,031
630,00	0,029
632,50	0,027
635,00	0,026
637,50	0,024
640,00	0,022
642,50	0,021
645,00	0,020
647,50	0,018
650,00	0,017
652,50	0,016
655,00	0,015
657,50	0,014
660,00	0,013
662,50	0,012
665,00	0,012
667,50	0,010
670,00	0,010
672,50	0,009
675,00	0,008
677,50	0,007
680,00	0,007
682,50	0,006
685,00	0,006
687,50	0,005
690,00	0,005
692,50	0,004
695,00	0,004
697,50	0,004
700,00	0,003
702,50	0,003
705,00	0,003
707,50	0,003
710,00	0,002
712,50	0,002
715,00	0,002
717,50	0,001
720,00	0,001
722,50	0,001
725,00	0,001
727,50	0,000
730,00	0,000
732,50	0,000
735,00	-0,000
737,50	-0,000
740,00	-0,001
742,50	-0,001
745,00	-0,001
747,50	-0,001
750,00	-0,001
752,50	-0,001
755,00	-0,002
757,50	-0,002
760,00	-0,002
762,50	-0,002
765,00	-0,002
767,50	-0,002
770,00	-0,002
772,50	-0,002
775,00	-0,001
777,50	-0,001
780,00	-0,002
782,50	-0,002
785,00	-0,003
787,50	-0,003
790,00	-0,003
792,50	-0,003
795,00	-0,003
797,50	-0,003
800,00	-0,003