File: Espectro Uv-Vis/oro/10/1.27e-4.txt
"1.27e-4 - Dataset 190451"
"Wavelength nm."	"Abs."
200,00	2,368
202,50	2,368
205,00	2,742
207,50	2,909
210,00	1,247
212,50	1,219
215,00	2,787
217,50	2,194
220,00	0,974
222,50	1,572
225,00	2,033
227,50	1,369
230,00	1,371
232,50	1,801
235,00	1,474
237,50	1,514
240,00	0,864
242,50	0,801
245,00	0,954
247,50	0,422
250,00	1,032
252,50	0,010
255,00	0,907
257,50	1,494
260,00	-0,344
262,50	1,367
265,00	1,644
267,50	0,874
270,00	1,311
272,50	0,455
275,00	-0,017
277,50	-0,147
280,00	-0,091
282,50	0,125
285,00	0,183
287,50	0,216
290,00	0,225
292,50	0,216
295,00	0,178
297,50	0,162
300,00	0,153
302,50	0,149
305,00	0,146
307,50	0,143
310,00	0,140
312,50	0,138
315,00	0,136
317,50	0,134
320,00	0,132
322,50	0,129
325,00	0,127
327,50	0,125
330,00	0,123
332,50	0,122
335,00	0,121
337,50	0,119
340,00	0,118
342,50	0,117
345,00	0,116
347,50	0,115
350,00	0,114
352,50	0,113
355,00	0,112
357,50	0,111
360,00	0,111
362,50	0,110
365,00	0,109
367,50	0,109
370,00	0,108
372,50	0,108
375,00	0,107
377,50	0,107
380,00	0,106
382,50	0,105
385,00	0,105
387,50	0,104
390,00	0,103
392,50	0,103
395,00	0,102
397,50	0,101
400,00	0,101
402,50	0,100
405,00	0,100
407,50	0,099
410,00	0,099
412,50	0,098
415,00	0,098
417,50	0,098
420,00	0,097
422,50	0,097
425,00	0,096
427,50	0,096
430,00	0,096
432,50	0,095
435,00	0,095
437,50	0,095
440,00	0,095
442,50	0,095
445,00	0,095
447,50	0,095
450,00	0,095
452,50	0,095
455,00	0,095
457,50	0,095
460,00	0,095
462,50	0,096
465,00	0,096
467,50	0,097
470,00	0,097
472,50	0,098
475,00	0,098
477,50	0,099
480,00	0,100
482,50	0,102
485,00	0,103
487,50	0,105
490,00	0,107
492,50	0,109
495,00	0,111
497,50	0,114
500,00	0,116
502,50	0,119
505,00	0,122
507,50	0,125
510,00	0,127
512,50	0,130
515,00	0,133
517,50	0,135
520,00	0,138
522,50	0,139
525,00	0,141
527,50	0,142
530,00	0,143
532,50	0,144
535,00	0,145
537,50	0,145
540,00	0,145
542,50	0,144
545,00	0,142
547,50	0,141
550,00	0,139
552,50	0,137
555,00	0,134
557,50	0,132
560,00	0,129
562,50	0,125
565,00	0,122
567,50	0,118
570,00	0,114
572,50	0,111
575,00	0,107
577,50	0,104
580,00	0,100
582,50	0,097
585,00	0,093
587,50	0,090
590,00	0,087
592,50	0,083
595,00	0,080
597,50	0,077
600,00	0,075
602,50	0,072
605,00	0,070
607,50	0,068
610,00	0,065
612,50	0,063
615,00	0,061
617,50	0,059
620,00	0,058
622,50	0,056
625,00	0,055
627,50	0,053
630,00	0,052
632,50	0,050
635,00	0,049
637,50	0,048
640,00	0,047
642,50	0,046
645,00	0,045
647,50	0,044
650,00	0,043
652,50	0,042
655,00	0,042
657,50	0,041
660,00	0,040
662,50	0,039
665,00	0,039
667,50	0,038
670,00	0,038
672,50	0,037
675,00	0,037
677,50	0,036
680,00	0,036
682,50	0,036
685,00	0,035
687,50	0,035
690,00	0,034
692,50	0,034
695,00	0,034
697,50	0,033
700,00	0,033
702,50	0,033
705,00	0,032
707,50	0,032
710,00	0,031
712,50	0,031
715,00	0,031
717,50	0,030
720,00	0,030
722,50	0,030
725,00	0,029
727,50	0,029
730,00	0,029
732,50	0,029
735,00	0,029
737,50	0,028
740,00	0,028
742,50	0,028
745,00	0,028
747,50	0,028
750,00	0,028
752,50	0,027
755,00	0,027
757,50	0,027
760,00	0,027
762,50	0,027
765,00	0,027
767,50	0,026
770,00	0,026
772,50	0,026
775,00	0,026
777,50	0,025
780,00	0,025
782,50	0,025
785,00	0,025
787,50	0,025
790,00	0,025
792,50	0,025
795,00	0,025
797,50	0,025
800,00	0,025