File: Lambda max, Extincion max y Area/citrato/2.00/2.1.txt
"2 - Dataset 200355"
"Wavelength nm."	"Abs."
200,00	2,779
202,50	2,779
205,00	2,958
207,50	2,571
210,00	1,834
212,50	4,685
215,00	3,441
217,50	0,267
220,00	0,538
222,50	1,046
225,00	1,709
227,50	1,653
230,00	1,565
232,50	2,393
235,00	3,042
237,50	0,574
240,00	0,920
242,50	1,413
245,00	1,549
247,50	2,280
250,00	1,327
252,50	0,191
255,00	0,336
257,50	1,118
260,00	0,885
262,50	1,992
265,00	2,399
267,50	2,406
270,00	1,599
272,50	1,320
275,00	1,529
277,50	0,847
280,00	0,342
282,50	0,083
285,00	0,256
287,50	0,239
290,00	0,272
292,50	0,257
295,00	0,228
297,50	0,246
300,00	0,252
302,50	0,253
305,00	0,251
307,50	0,249
310,00	0,246
312,50	0,243
315,00	0,241
317,50	0,239
320,00	0,236
322,50	0,234
325,00	0,232
327,50	0,230
330,00	0,228
332,50	0,227
335,00	0,226
337,50	0,224
340,00	0,223
342,50	0,222
345,00	0,221
347,50	0,220
350,00	0,219
352,50	0,219
355,00	0,218
357,50	0,216
360,00	0,216
362,50	0,215
365,00	0,213
367,50	0,212
370,00	0,210
372,50	0,209
375,00	0,209
377,50	0,207
380,00	0,206
382,50	0,205
385,00	0,204
387,50	0,202
390,00	0,201
392,50	0,200
395,00	0,199
397,50	0,198
400,00	0,197
402,50	0,196
405,00	0,195
407,50	0,194
410,00	0,193
412,50	0,193
415,00	0,192
417,50	0,192
420,00	0,191
422,50	0,191
425,00	0,190
427,50	0,190
430,00	0,190
432,50	0,190
435,00	0,190
437,50	0,190
440,00	0,190
442,50	0,190
445,00	0,191
447,50	0,191
450,00	0,192
452,50	0,193
455,00	0,194
457,50	0,195
460,00	0,196
462,50	0,198
465,00	0,200
467,50	0,202
470,00	0,205
472,50	0,207
475,00	0,210
477,50	0,214
480,00	0,218
482,50	0,222
485,00	0,227
487,50	0,233
490,00	0,239
492,50	0,246
495,00	0,253
497,50	0,260
500,00	0,268
502,50	0,275
505,00	0,282
507,50	0,288
510,00	0,294
512,50	0,299
515,00	0,302
517,50	0,304
520,00	0,305
522,50	0,304
525,00	0,301
527,50	0,296
530,00	0,290
532,50	0,282
535,00	0,273
537,50	0,264
540,00	0,253
542,50	0,241
545,00	0,229
547,50	0,217
550,00	0,206
552,50	0,194
555,00	0,183
557,50	0,172
560,00	0,162
562,50	0,152
565,00	0,143
567,50	0,134
570,00	0,126
572,50	0,119
575,00	0,113
577,50	0,107
580,00	0,101
582,50	0,096
585,00	0,091
587,50	0,086
590,00	0,082
592,50	0,078
595,00	0,074
597,50	0,071
600,00	0,068
602,50	0,065
605,00	0,063
607,50	0,061
610,00	0,058
612,50	0,056
615,00	0,054
617,50	0,052
620,00	0,050
622,50	0,049
625,00	0,047
627,50	0,046
630,00	0,045
632,50	0,044
635,00	0,043
637,50	0,041
640,00	0,040
642,50	0,039
645,00	0,038
647,50	0,038
650,00	0,037
652,50	0,036
655,00	0,035
657,50	0,035
660,00	0,034
662,50	0,033
665,00	0,033
667,50	0,032
670,00	0,032
672,50	0,031
675,00	0,031
677,50	0,030
680,00	0,030
682,50	0,030
685,00	0,029
687,50	0,029
690,00	0,029
692,50	0,028
695,00	0,028
697,50	0,027
700,00	0,027
702,50	0,027
705,00	0,027
707,50	0,026
710,00	0,026
712,50	0,026
715,00	0,025
717,50	0,025
720,00	0,024
722,50	0,024
725,00	0,024
727,50	0,024
730,00	0,024
732,50	0,024
735,00	0,024
737,50	0,024
740,00	0,024
742,50	0,024
745,00	0,023
747,50	0,023
750,00	0,023
752,50	0,023
755,00	0,023
757,50	0,023
760,00	0,023
762,50	0,022
765,00	0,022
767,50	0,022
770,00	0,022
772,50	0,021
775,00	0,021
777,50	0,021
780,00	0,021
782,50	0,021
785,00	0,021
787,50	0,021
790,00	0,021
792,50	0,021
795,00	0,021
797,50	0,021
800,00	0,021