File: Espectro Uv-Vis/oro/5/3.81e-4.txt
"3.81e-4 - Dataset 212157"
"Wavelength nm."	"Abs."
200,00	2,887
202,50	2,887
205,00	3,269
207,50	5,211
210,00	3,150
212,50	1,552
215,00	2,355
217,50	2,676
220,00	3,156
222,50	3,209
225,00	2,608
227,50	2,782
230,00	3,529
232,50	3,214
235,00	2,277
237,50	2,387
240,00	3,275
242,50	4,349
245,00	2,234
247,50	1,721
250,00	2,291
252,50	1,735
255,00	1,557
257,50	2,839
260,00	2,698
262,50	3,369
265,00	4,117
267,50	2,521
270,00	1,956
272,50	-0,135
275,00	1,656
277,50	1,901
280,00	-0,026
282,50	0,588
285,00	0,476
287,50	0,452
290,00	0,455
292,50	0,445
295,00	0,442
297,50	0,435
300,00	0,426
302,50	0,418
305,00	0,413
307,50	0,407
310,00	0,400
312,50	0,394
315,00	0,389
317,50	0,384
320,00	0,377
322,50	0,372
325,00	0,368
327,50	0,364
330,00	0,360
332,50	0,356
335,00	0,354
337,50	0,350
340,00	0,347
342,50	0,345
345,00	0,344
347,50	0,342
350,00	0,341
352,50	0,340
355,00	0,339
357,50	0,338
360,00	0,338
362,50	0,337
365,00	0,335
367,50	0,334
370,00	0,332
372,50	0,330
375,00	0,329
377,50	0,327
380,00	0,325
382,50	0,323
385,00	0,321
387,50	0,319
390,00	0,317
392,50	0,315
395,00	0,313
397,50	0,311
400,00	0,309
402,50	0,307
405,00	0,305
407,50	0,304
410,00	0,302
412,50	0,301
415,00	0,300
417,50	0,298
420,00	0,297
422,50	0,296
425,00	0,295
427,50	0,294
430,00	0,293
432,50	0,293
435,00	0,292
437,50	0,291
440,00	0,291
442,50	0,291
445,00	0,291
447,50	0,291
450,00	0,291
452,50	0,291
455,00	0,292
457,50	0,293
460,00	0,294
462,50	0,295
465,00	0,297
467,50	0,300
470,00	0,302
472,50	0,306
475,00	0,310
477,50	0,314
480,00	0,320
482,50	0,326
485,00	0,334
487,50	0,343
490,00	0,353
492,50	0,365
495,00	0,378
497,50	0,392
500,00	0,407
502,50	0,422
505,00	0,437
507,50	0,452
510,00	0,465
512,50	0,478
515,00	0,490
517,50	0,499
520,00	0,506
522,50	0,510
525,00	0,512
527,50	0,512
530,00	0,510
532,50	0,506
535,00	0,501
537,50	0,494
540,00	0,485
542,50	0,476
545,00	0,465
547,50	0,453
550,00	0,440
552,50	0,427
555,00	0,413
557,50	0,399
560,00	0,385
562,50	0,370
565,00	0,355
567,50	0,340
570,00	0,325
572,50	0,311
575,00	0,297
577,50	0,284
580,00	0,271
582,50	0,259
585,00	0,247
587,50	0,235
590,00	0,224
592,50	0,213
595,00	0,203
597,50	0,193
600,00	0,185
602,50	0,176
605,00	0,168
607,50	0,161
610,00	0,153
612,50	0,147
615,00	0,140
617,50	0,134
620,00	0,128
622,50	0,123
625,00	0,118
627,50	0,113
630,00	0,109
632,50	0,104
635,00	0,100
637,50	0,097
640,00	0,093
642,50	0,089
645,00	0,086
647,50	0,083
650,00	0,080
652,50	0,078
655,00	0,075
657,50	0,073
660,00	0,070
662,50	0,068
665,00	0,066
667,50	0,065
670,00	0,063
672,50	0,062
675,00	0,060
677,50	0,058
680,00	0,057
682,50	0,055
685,00	0,054
687,50	0,053
690,00	0,051
692,50	0,050
695,00	0,049
697,50	0,048
700,00	0,047
702,50	0,046
705,00	0,045
707,50	0,044
710,00	0,044
712,50	0,043
715,00	0,042
717,50	0,041
720,00	0,040
722,50	0,040
725,00	0,039
727,50	0,038
730,00	0,038
732,50	0,037
735,00	0,036
737,50	0,036
740,00	0,036
742,50	0,035
745,00	0,035
747,50	0,034
750,00	0,034
752,50	0,033
755,00	0,033
757,50	0,032
760,00	0,032
762,50	0,032
765,00	0,031
767,50	0,031
770,00	0,031
772,50	0,030
775,00	0,029
777,50	0,029
780,00	0,029
782,50	0,029
785,00	0,029
787,50	0,029
790,00	0,029
792,50	0,028
795,00	0,028
797,50	0,028
800,00	0,028