File: Espectro Uv-Vis/oro/5/3.86e-4.txt
"3.86e-4_212141 - RawData"
"Wavelength nm."	"Abs."
200,00	0,614
202,50	0,601
205,00	0,598
207,50	0,593
210,00	0,589
212,50	0,586
215,00	0,584
217,50	0,581
220,00	0,577
222,50	0,576
225,00	0,572
227,50	0,571
230,00	0,569
232,50	0,568
235,00	0,567
237,50	0,568
240,00	0,569
242,50	0,572
245,00	0,574
247,50	0,577
250,00	0,580
252,50	0,583
255,00	0,586
257,50	0,588
260,00	0,592
262,50	0,591
265,00	0,591
267,50	0,590
270,00	0,588
272,50	0,584
275,00	0,580
277,50	0,574
280,00	0,569
282,50	0,563
285,00	0,557
287,50	0,552
290,00	0,546
292,50	0,505
295,00	0,528
297,50	0,528
300,00	0,536
302,50	0,529
305,00	0,472
307,50	0,496
310,00	0,485
312,50	0,503
315,00	0,483
317,50	0,481
320,00	0,476
322,50	0,450
325,00	0,449
327,50	0,445
330,00	0,436
332,50	0,455
335,00	0,447
337,50	0,459
340,00	0,423
342,50	0,429
345,00	0,420
347,50	0,418
350,00	0,403
352,50	0,428
355,00	0,417
357,50	0,419
360,00	0,417
362,50	0,421
365,00	0,412
367,50	0,423
370,00	0,426
372,50	0,416
375,00	0,400
377,50	0,411
380,00	0,412
382,50	0,403
385,00	0,398
387,50	0,394
390,00	0,399
392,50	0,401
395,00	0,396
397,50	0,401
400,00	0,391
402,50	0,390
405,00	0,386
407,50	0,385
410,00	0,379
412,50	0,382
415,00	0,374
417,50	0,376
420,00	0,373
422,50	0,359
425,00	0,361
427,50	0,371
430,00	0,362
432,50	0,364
435,00	0,356
437,50	0,361
440,00	0,356
442,50	0,359
445,00	0,360
447,50	0,355
450,00	0,352
452,50	0,356
455,00	0,360
457,50	0,355
460,00	0,353
462,50	0,354
465,00	0,356
467,50	0,360
470,00	0,362
472,50	0,365
475,00	0,366
477,50	0,362
480,00	0,368
482,50	0,381
485,00	0,393
487,50	0,400
490,00	0,397
492,50	0,426
495,00	0,437
497,50	0,455
500,00	0,469
502,50	0,499
505,00	0,508
507,50	0,531
510,00	0,554
512,50	0,585
515,00	0,598
517,50	0,616
520,00	0,648
522,50	0,658
525,00	0,674
527,50	0,675
530,00	0,685
532,50	0,691
535,00	0,680
537,50	0,693
540,00	0,695
542,50	0,697
545,00	0,684
547,50	0,676
550,00	0,670
552,50	0,657
555,00	0,639
557,50	0,639
560,00	0,624
562,50	0,602
565,00	0,585
567,50	0,561
570,00	0,545
572,50	0,526
575,00	0,503
577,50	0,483
580,00	0,461
582,50	0,443
585,00	0,423
587,50	0,402
590,00	0,384
592,50	0,364
595,00	0,342
597,50	0,325
600,00	0,317
602,50	0,292
605,00	0,276
607,50	0,261
610,00	0,245
612,50	0,238
615,00	0,224
617,50	0,211
620,00	0,197
622,50	0,187
625,00	0,177
627,50	0,168
630,00	0,160
632,50	0,148
635,00	0,147
637,50	0,134
640,00	0,124
642,50	0,130
645,00	0,120
647,50	0,105
650,00	0,098
652,50	0,097
655,00	0,092
657,50	0,088
660,00	0,084
662,50	0,087
665,00	0,079
667,50	0,070
670,00	0,062
672,50	0,069
675,00	0,066
677,50	0,070
680,00	0,066
682,50	0,054
685,00	0,057
687,50	0,053
690,00	0,054
692,50	0,044
695,00	0,041
697,50	0,050
700,00	0,034
702,50	0,045
705,00	0,051
707,50	0,041
710,00	0,037
712,50	0,031
715,00	0,041
717,50	0,042
720,00	0,031
722,50	0,028
725,00	0,023
727,50	0,031
730,00	0,027
732,50	0,039
735,00	0,030
737,50	0,019
740,00	0,025
742,50	0,028
745,00	0,028
747,50	0,021
750,00	0,016
752,50	0,027
755,00	0,023
757,50	0,020
760,00	0,028
762,50	0,018
765,00	0,023
767,50	0,017
770,00	0,019
772,50	0,022
775,00	0,017
777,50	0,017
780,00	0,016
782,50	0,016
785,00	0,017
787,50	0,016
790,00	0,018
792,50	0,022
795,00	0,016
797,50	0,013
800,00	0,015