File: Espectro Uv-Vis/oro/5/3.97e-4.txt
"3.97e-4 - Dataset 212515"
"Wavelength nm."	"Abs."
200,00	3,710
202,50	3,710
205,00	3,215
207,50	4,929
210,00	3,813
212,50	2,160
215,00	2,223
217,50	0,960
220,00	0,894
222,50	2,374
225,00	2,611
227,50	2,806
230,00	3,686
232,50	3,342
235,00	1,929
237,50	3,099
240,00	2,590
242,50	2,533
245,00	2,547
247,50	2,792
250,00	1,917
252,50	1,296
255,00	2,835
257,50	1,362
260,00	2,093
262,50	4,458
265,00	3,503
267,50	1,151
270,00	3,187
272,50	3,266
275,00	1,371
277,50	0,508
280,00	0,963
282,50	1,103
285,00	0,184
287,50	0,300
290,00	1,506
292,50	3,248
295,00	1,776
297,50	-0,009
300,00	0,443
302,50	0,449
305,00	0,432
307,50	0,419
310,00	0,423
312,50	0,405
315,00	0,409
317,50	0,411
320,00	0,398
322,50	0,385
325,00	0,379
327,50	0,371
330,00	0,370
332,50	0,369
335,00	0,361
337,50	0,358
340,00	0,356
342,50	0,359
345,00	0,355
347,50	0,356
350,00	0,355
352,50	0,351
355,00	0,350
357,50	0,349
360,00	0,348
362,50	0,345
365,00	0,346
367,50	0,345
370,00	0,339
372,50	0,339
375,00	0,338
377,50	0,335
380,00	0,339
382,50	0,336
385,00	0,329
387,50	0,327
390,00	0,322
392,50	0,322
395,00	0,321
397,50	0,323
400,00	0,322
402,50	0,316
405,00	0,314
407,50	0,312
410,00	0,310
412,50	0,311
415,00	0,307
417,50	0,305
420,00	0,307
422,50	0,304
425,00	0,300
427,50	0,299
430,00	0,298
432,50	0,298
435,00	0,297
437,50	0,297
440,00	0,296
442,50	0,295
445,00	0,295
447,50	0,295
450,00	0,295
452,50	0,296
455,00	0,297
457,50	0,298
460,00	0,298
462,50	0,297
465,00	0,299
467,50	0,301
470,00	0,306
472,50	0,308
475,00	0,308
477,50	0,312
480,00	0,318
482,50	0,325
485,00	0,332
487,50	0,340
490,00	0,348
492,50	0,358
495,00	0,371
497,50	0,384
500,00	0,396
502,50	0,411
505,00	0,424
507,50	0,440
510,00	0,450
512,50	0,460
515,00	0,473
517,50	0,481
520,00	0,486
522,50	0,490
525,00	0,494
527,50	0,495
530,00	0,490
532,50	0,487
535,00	0,485
537,50	0,483
540,00	0,473
542,50	0,466
545,00	0,461
547,50	0,454
550,00	0,444
552,50	0,435
555,00	0,426
557,50	0,413
560,00	0,404
562,50	0,395
565,00	0,383
567,50	0,373
570,00	0,364
572,50	0,351
575,00	0,338
577,50	0,329
580,00	0,320
582,50	0,307
585,00	0,297
587,50	0,289
590,00	0,280
592,50	0,271
595,00	0,260
597,50	0,251
600,00	0,244
602,50	0,236
605,00	0,226
607,50	0,218
610,00	0,214
612,50	0,209
615,00	0,200
617,50	0,193
620,00	0,189
622,50	0,183
625,00	0,178
627,50	0,174
630,00	0,165
632,50	0,161
635,00	0,157
637,50	0,152
640,00	0,149
642,50	0,146
645,00	0,143
647,50	0,139
650,00	0,134
652,50	0,131
655,00	0,129
657,50	0,124
660,00	0,122
662,50	0,120
665,00	0,116
667,50	0,113
670,00	0,111
672,50	0,109
675,00	0,109
677,50	0,107
680,00	0,103
682,50	0,100
685,00	0,100
687,50	0,099
690,00	0,098
692,50	0,095
695,00	0,094
697,50	0,091
700,00	0,089
702,50	0,086
705,00	0,085
707,50	0,085
710,00	0,083
712,50	0,082
715,00	0,082
717,50	0,082
720,00	0,078
722,50	0,079
725,00	0,079
727,50	0,076
730,00	0,073
732,50	0,073
735,00	0,072
737,50	0,070
740,00	0,069
742,50	0,070
745,00	0,071
747,50	0,067
750,00	0,065
752,50	0,070
755,00	0,065
757,50	0,064
760,00	0,065
762,50	0,065
765,00	0,063
767,50	0,061
770,00	0,063
772,50	0,066
775,00	0,063
777,50	0,060
780,00	0,058
782,50	0,054
785,00	0,054
787,50	0,056
790,00	0,057
792,50	0,058
795,00	0,055
797,50	0,056
800,00	0,056