File: Espectro Uv-Vis/pH/0.5ml e-1M (pH=3.9)/0.49_e-1M.txt
"0.5_e-1M - Dataset 184331"
"Wavelength nm."	"Abs."
200,00	0,410
202,50	0,410
205,00	0,185
207,50	1,439
210,00	1,733
212,50	2,935
215,00	3,108
217,50	0,767
220,00	0,759
222,50	2,411
225,00	3,383
227,50	2,294
230,00	0,392
232,50	0,361
235,00	0,354
237,50	0,990
240,00	3,883
242,50	3,788
245,00	2,635
247,50	1,233
250,00	1,459
252,50	2,587
255,00	1,238
257,50	1,010
260,00	0,698
262,50	1,432
265,00	3,085
267,50	1,522
270,00	0,011
272,50	0,827
275,00	3,165
277,50	1,891
280,00	-0,127
282,50	0,165
285,00	0,242
287,50	0,289
290,00	0,310
292,50	0,303
295,00	0,283
297,50	0,283
300,00	0,286
302,50	0,284
305,00	0,280
307,50	0,277
310,00	0,274
312,50	0,269
315,00	0,265
317,50	0,262
320,00	0,259
322,50	0,255
325,00	0,252
327,50	0,250
330,00	0,247
332,50	0,245
335,00	0,243
337,50	0,241
340,00	0,240
342,50	0,238
345,00	0,237
347,50	0,237
350,00	0,237
352,50	0,237
355,00	0,236
357,50	0,236
360,00	0,235
362,50	0,235
365,00	0,234
367,50	0,233
370,00	0,233
372,50	0,232
375,00	0,231
377,50	0,231
380,00	0,229
382,50	0,228
385,00	0,227
387,50	0,225
390,00	0,224
392,50	0,223
395,00	0,222
397,50	0,221
400,00	0,219
402,50	0,218
405,00	0,217
407,50	0,216
410,00	0,215
412,50	0,214
415,00	0,213
417,50	0,212
420,00	0,211
422,50	0,210
425,00	0,209
427,50	0,209
430,00	0,208
432,50	0,208
435,00	0,208
437,50	0,207
440,00	0,207
442,50	0,207
445,00	0,206
447,50	0,206
450,00	0,206
452,50	0,207
455,00	0,207
457,50	0,208
460,00	0,209
462,50	0,210
465,00	0,211
467,50	0,213
470,00	0,215
472,50	0,217
475,00	0,220
477,50	0,223
480,00	0,227
482,50	0,231
485,00	0,237
487,50	0,243
490,00	0,250
492,50	0,259
495,00	0,268
497,50	0,278
500,00	0,289
502,50	0,300
505,00	0,311
507,50	0,321
510,00	0,332
512,50	0,341
515,00	0,350
517,50	0,357
520,00	0,362
522,50	0,366
525,00	0,369
527,50	0,369
530,00	0,368
532,50	0,365
535,00	0,361
537,50	0,356
540,00	0,349
542,50	0,342
545,00	0,333
547,50	0,324
550,00	0,314
552,50	0,303
555,00	0,292
557,50	0,280
560,00	0,269
562,50	0,257
565,00	0,245
567,50	0,233
570,00	0,222
572,50	0,211
575,00	0,201
577,50	0,191
580,00	0,181
582,50	0,172
585,00	0,163
587,50	0,155
590,00	0,147
592,50	0,140
595,00	0,133
597,50	0,126
600,00	0,120
602,50	0,115
605,00	0,110
607,50	0,105
610,00	0,100
612,50	0,095
615,00	0,091
617,50	0,088
620,00	0,084
622,50	0,081
625,00	0,078
627,50	0,075
630,00	0,072
632,50	0,070
635,00	0,067
637,50	0,065
640,00	0,063
642,50	0,061
645,00	0,059
647,50	0,057
650,00	0,055
652,50	0,054
655,00	0,052
657,50	0,051
660,00	0,050
662,50	0,049
665,00	0,047
667,50	0,046
670,00	0,045
672,50	0,044
675,00	0,043
677,50	0,042
680,00	0,041
682,50	0,041
685,00	0,040
687,50	0,039
690,00	0,038
692,50	0,037
695,00	0,037
697,50	0,036
700,00	0,036
702,50	0,035
705,00	0,035
707,50	0,034
710,00	0,033
712,50	0,033
715,00	0,033
717,50	0,032
720,00	0,032
722,50	0,031
725,00	0,031
727,50	0,031
730,00	0,030
732,50	0,030
735,00	0,029
737,50	0,029
740,00	0,028
742,50	0,028
745,00	0,028
747,50	0,027
750,00	0,027
752,50	0,027
755,00	0,027
757,50	0,026
760,00	0,026
762,50	0,026
765,00	0,026
767,50	0,025
770,00	0,025
772,50	0,025
775,00	0,025
777,50	0,024
780,00	0,024
782,50	0,024
785,00	0,023
787,50	0,023
790,00	0,023
792,50	0,023
795,00	0,023
797,50	0,023
800,00	0,023