File: Espectro Uv-Vis/pH/0.5ml e-1M (pH=3.9)/0.5_e-1M.txt
"0.5_e-1M(2) - Dataset 184904"
"Wavelength nm."	"Abs."
200,00	1,051
202,50	1,051
205,00	1,389
207,50	2,672
210,00	1,375
212,50	3,827
215,00	2,616
217,50	1,222
220,00	1,447
222,50	1,780
225,00	2,245
227,50	0,651
230,00	-0,097
232,50	-0,484
235,00	0,601
237,50	1,093
240,00	1,882
242,50	1,148
245,00	1,299
247,50	0,926
250,00	1,239
252,50	3,142
255,00	2,818
257,50	1,561
260,00	0,577
262,50	1,608
265,00	2,800
267,50	1,615
270,00	0,511
272,50	0,548
275,00	1,583
277,50	1,129
280,00	0,375
282,50	0,198
285,00	0,216
287,50	0,255
290,00	0,280
292,50	0,278
295,00	0,257
297,50	0,259
300,00	0,263
302,50	0,260
305,00	0,257
307,50	0,255
310,00	0,252
312,50	0,248
315,00	0,245
317,50	0,242
320,00	0,239
322,50	0,236
325,00	0,233
327,50	0,231
330,00	0,228
332,50	0,226
335,00	0,224
337,50	0,223
340,00	0,221
342,50	0,220
345,00	0,219
347,50	0,219
350,00	0,219
352,50	0,219
355,00	0,218
357,50	0,218
360,00	0,217
362,50	0,217
365,00	0,216
367,50	0,216
370,00	0,215
372,50	0,214
375,00	0,214
377,50	0,213
380,00	0,212
382,50	0,211
385,00	0,210
387,50	0,209
390,00	0,208
392,50	0,207
395,00	0,205
397,50	0,204
400,00	0,203
402,50	0,202
405,00	0,201
407,50	0,200
410,00	0,199
412,50	0,198
415,00	0,197
417,50	0,196
420,00	0,195
422,50	0,195
425,00	0,194
427,50	0,193
430,00	0,193
432,50	0,192
435,00	0,192
437,50	0,191
440,00	0,191
442,50	0,191
445,00	0,191
447,50	0,191
450,00	0,191
452,50	0,191
455,00	0,192
457,50	0,192
460,00	0,193
462,50	0,194
465,00	0,196
467,50	0,197
470,00	0,199
472,50	0,201
475,00	0,203
477,50	0,206
480,00	0,210
482,50	0,214
485,00	0,219
487,50	0,225
490,00	0,232
492,50	0,240
495,00	0,249
497,50	0,258
500,00	0,269
502,50	0,279
505,00	0,290
507,50	0,300
510,00	0,310
512,50	0,319
515,00	0,327
517,50	0,334
520,00	0,340
522,50	0,344
525,00	0,346
527,50	0,346
530,00	0,346
532,50	0,343
535,00	0,340
537,50	0,336
540,00	0,330
542,50	0,323
545,00	0,315
547,50	0,307
550,00	0,298
552,50	0,288
555,00	0,278
557,50	0,267
560,00	0,257
562,50	0,245
565,00	0,234
567,50	0,223
570,00	0,212
572,50	0,202
575,00	0,192
577,50	0,183
580,00	0,174
582,50	0,165
585,00	0,156
587,50	0,148
590,00	0,140
592,50	0,133
595,00	0,126
597,50	0,120
600,00	0,114
602,50	0,108
605,00	0,103
607,50	0,098
610,00	0,093
612,50	0,089
615,00	0,085
617,50	0,081
620,00	0,078
622,50	0,074
625,00	0,071
627,50	0,068
630,00	0,065
632,50	0,063
635,00	0,061
637,50	0,058
640,00	0,056
642,50	0,054
645,00	0,052
647,50	0,050
650,00	0,049
652,50	0,047
655,00	0,046
657,50	0,044
660,00	0,043
662,50	0,042
665,00	0,040
667,50	0,039
670,00	0,038
672,50	0,037
675,00	0,036
677,50	0,035
680,00	0,034
682,50	0,034
685,00	0,033
687,50	0,032
690,00	0,031
692,50	0,030
695,00	0,030
697,50	0,029
700,00	0,029
702,50	0,028
705,00	0,028
707,50	0,027
710,00	0,027
712,50	0,026
715,00	0,026
717,50	0,025
720,00	0,025
722,50	0,025
725,00	0,024
727,50	0,024
730,00	0,024
732,50	0,023
735,00	0,023
737,50	0,023
740,00	0,022
742,50	0,022
745,00	0,022
747,50	0,021
750,00	0,021
752,50	0,021
755,00	0,020
757,50	0,020
760,00	0,020
762,50	0,020
765,00	0,019
767,50	0,019
770,00	0,019
772,50	0,019
775,00	0,018
777,50	0,018
780,00	0,018
782,50	0,018
785,00	0,017
787,50	0,017
790,00	0,017
792,50	0,017
795,00	0,017
797,50	0,017
800,00	0,017