File: Espectro Uv-Vis/citrato/0.60/0.59.txt
"0.6ml_ - Dataset 231025"
"Wavelength nm."	"Abs."
200,00	0,777
202,50	0,777
205,00	1,298
207,50	1,824
210,00	1,571
212,50	1,085
215,00	0,305
217,50	0,191
220,00	1,540
222,50	2,315
225,00	0,433
227,50	1,100
230,00	3,068
232,50	1,505
235,00	1,036
237,50	2,328
240,00	1,235
242,50	-0,147
245,00	0,299
247,50	1,233
250,00	2,172
252,50	1,028
255,00	0,665
257,50	1,357
260,00	1,285
262,50	0,155
265,00	1,012
267,50	1,985
270,00	1,504
272,50	0,958
275,00	1,019
277,50	0,316
280,00	0,236
282,50	0,346
285,00	0,349
287,50	0,350
290,00	0,286
292,50	0,277
295,00	0,347
297,50	0,323
300,00	0,319
302,50	0,317
305,00	0,320
307,50	0,313
310,00	0,303
312,50	0,299
315,00	0,306
317,50	0,304
320,00	0,292
322,50	0,292
325,00	0,296
327,50	0,285
330,00	0,278
332,50	0,278
335,00	0,278
337,50	0,272
340,00	0,262
342,50	0,266
345,00	0,264
347,50	0,265
350,00	0,266
352,50	0,263
355,00	0,262
357,50	0,259
360,00	0,258
362,50	0,257
365,00	0,262
367,50	0,257
370,00	0,253
372,50	0,259
375,00	0,254
377,50	0,251
380,00	0,254
382,50	0,252
385,00	0,249
387,50	0,250
390,00	0,248
392,50	0,248
395,00	0,248
397,50	0,244
400,00	0,242
402,50	0,242
405,00	0,238
407,50	0,236
410,00	0,238
412,50	0,237
415,00	0,233
417,50	0,234
420,00	0,232
422,50	0,229
425,00	0,231
427,50	0,230
430,00	0,226
432,50	0,225
435,00	0,226
437,50	0,223
440,00	0,223
442,50	0,222
445,00	0,222
447,50	0,221
450,00	0,219
452,50	0,221
455,00	0,221
457,50	0,221
460,00	0,219
462,50	0,221
465,00	0,223
467,50	0,221
470,00	0,224
472,50	0,225
475,00	0,227
477,50	0,229
480,00	0,234
482,50	0,239
485,00	0,240
487,50	0,246
490,00	0,253
492,50	0,260
495,00	0,271
497,50	0,281
500,00	0,289
502,50	0,302
505,00	0,314
507,50	0,325
510,00	0,335
512,50	0,346
515,00	0,355
517,50	0,360
520,00	0,367
522,50	0,377
525,00	0,381
527,50	0,381
530,00	0,382
532,50	0,380
535,00	0,376
537,50	0,374
540,00	0,373
542,50	0,369
545,00	0,363
547,50	0,358
550,00	0,353
552,50	0,348
555,00	0,342
557,50	0,335
560,00	0,329
562,50	0,321
565,00	0,315
567,50	0,308
570,00	0,299
572,50	0,295
575,00	0,288
577,50	0,281
580,00	0,273
582,50	0,267
585,00	0,260
587,50	0,250
590,00	0,245
592,50	0,239
595,00	0,230
597,50	0,225
600,00	0,218
602,50	0,211
605,00	0,204
607,50	0,200
610,00	0,194
612,50	0,189
615,00	0,185
617,50	0,177
620,00	0,172
622,50	0,170
625,00	0,166
627,50	0,160
630,00	0,157
632,50	0,154
635,00	0,150
637,50	0,145
640,00	0,143
642,50	0,139
645,00	0,137
647,50	0,133
650,00	0,128
652,50	0,124
655,00	0,121
657,50	0,121
660,00	0,118
662,50	0,115
665,00	0,113
667,50	0,110
670,00	0,108
672,50	0,107
675,00	0,104
677,50	0,102
680,00	0,099
682,50	0,097
685,00	0,097
687,50	0,095
690,00	0,092
692,50	0,089
695,00	0,091
697,50	0,090
700,00	0,086
702,50	0,085
705,00	0,087
707,50	0,085
710,00	0,081
712,50	0,081
715,00	0,078
717,50	0,077
720,00	0,081
722,50	0,077
725,00	0,073
727,50	0,076
730,00	0,074
732,50	0,072
735,00	0,071
737,50	0,069
740,00	0,070
742,50	0,068
745,00	0,067
747,50	0,065
750,00	0,064
752,50	0,063
755,00	0,065
757,50	0,067
760,00	0,064
762,50	0,062
765,00	0,062
767,50	0,060
770,00	0,059
772,50	0,059
775,00	0,058
777,50	0,056
780,00	0,058
782,50	0,058
785,00	0,057
787,50	0,055
790,00	0,058
792,50	0,054
795,00	0,052
797,50	0,055
800,00	0,055